WSM
F3OF
DT2
PITCH
t(s)	PITCH(deg)
0.00000	10.00000
0.10000	9.97390
0.20000	9.88208
0.30000	9.70503
0.40000	9.43080
0.50000	9.05809
0.60000	8.59403
0.70000	8.04975
0.80000	7.43641
0.90000	6.76307
1.00000	6.03650
1.10000	5.26208
1.20000	4.44508
1.30000	3.59152
1.40000	2.70855
1.50000	1.80431
1.60000	0.88750
1.70000	-0.03297
1.80000	-0.94837
1.90000	-1.85023
2.00000	-2.73041
2.10000	-3.58106
2.20000	-4.39466
2.30000	-5.16406
2.40000	-5.88253
2.50000	-6.54393
2.60000	-7.14275
2.70000	-7.67422
2.80000	-8.13432
2.90000	-8.51977
3.00000	-8.82808
3.10000	-9.05742
3.20000	-9.20669
3.30000	-9.27543
3.40000	-9.26382
3.50000	-9.17264
3.60000	-9.00326
3.70000	-8.75761
3.80000	-8.43816
3.90000	-8.04786
4.00000	-7.59019
4.10000	-7.06907
4.20000	-6.48890
4.30000	-5.85452
4.40000	-5.17121
4.50000	-4.44463
4.60000	-3.68088
4.70000	-2.88639
4.80000	-2.06790
4.90000	-1.23246
5.00000	-0.38732
5.10000	0.46014
5.20000	1.30243
5.30000	2.13209
5.40000	2.94175
5.50000	3.72422
5.60000	4.47258
5.70000	5.18023
5.80000	5.84099
5.90000	6.44917
6.00000	6.99957
6.10000	7.48759
6.20000	7.90918
6.30000	8.26094
6.40000	8.54010
6.50000	8.74452
6.60000	8.87271
6.70000	8.92383
6.80000	8.89767
6.90000	8.79465
7.00000	8.61581
7.10000	8.36279
7.20000	8.03783
7.30000	7.64372
7.40000	7.18381
7.50000	6.66201
7.60000	6.08273
7.70000	5.45089
7.80000	4.77186
7.90000	4.05148
8.00000	3.29601
8.10000	2.51206
8.20000	1.70660
8.30000	0.88682
8.40000	0.06013
8.50000	-0.76594
8.60000	-1.58383
8.70000	-2.38606
8.80000	-3.16527
8.90000	-3.91437
9.00000	-4.62661
9.10000	-5.29563
9.20000	-5.91557
9.30000	-6.48110
9.40000	-6.98747
9.50000	-7.43055
9.60000	-7.80681
9.70000	-8.11339
9.80000	-8.34803
9.90000	-8.50910
10.00000	-8.59559
10.10000	-8.60708
10.20000	-8.54372
10.30000	-8.40624
10.40000	-8.19591
10.50000	-7.91454
10.60000	-7.56447
10.70000	-7.14856
10.80000	-6.67021
10.90000	-6.13331
11.00000	-5.54226
11.10000	-4.90198
11.20000	-4.21787
11.30000	-3.49580
11.40000	-2.74208
11.50000	-1.96344
11.60000	-1.16693
11.70000	-0.35992
11.80000	0.45006
11.90000	1.25533
12.00000	2.04823
12.10000	2.82118
12.20000	3.56681
12.30000	4.27807
12.40000	4.94828
12.50000	5.57128
12.60000	6.14145
12.70000	6.65377
12.80000	7.10388
12.90000	7.48807
13.00000	7.80333
13.10000	8.04731
13.20000	8.21832
13.30000	8.31534
13.40000	8.33799
13.50000	8.28649
13.60000	8.16167
13.70000	7.96492
13.80000	7.69820
13.90000	7.36400
14.00000	6.96536
14.10000	6.50579
14.20000	5.98935
14.30000	5.42055
14.40000	4.80436
14.50000	4.14623
14.60000	3.45201
14.70000	2.72792
14.80000	1.98055
14.90000	1.21675
15.00000	0.44358
15.10000	-0.33172
15.20000	-1.10190
15.30000	-1.85970
15.40000	-2.59803
15.50000	-3.31000
15.60000	-3.98903
15.70000	-4.62894
15.80000	-5.22400
15.90000	-5.76904
16.00000	-6.25941
16.10000	-6.69109
16.20000	-7.06068
16.30000	-7.36539
16.40000	-7.60308
16.50000	-7.77222
16.60000	-7.87191
16.70000	-7.90183
16.80000	-7.86225
16.90000	-7.75397
17.00000	-7.57836
17.10000	-7.33728
17.20000	-7.03312
17.30000	-6.66872
17.40000	-6.24739
17.50000	-5.77289
17.60000	-5.24940
17.70000	-4.68150
17.80000	-4.07416
17.90000	-3.43270
18.00000	-2.76275
18.10000	-2.07024
18.20000	-1.36134
18.30000	-0.64238
18.40000	0.08016
18.50000	0.79975
18.60000	1.50986
18.70000	2.20407
18.80000	2.87608
18.90000	3.51985
19.00000	4.12963
19.10000	4.70004
19.20000	5.22610
19.30000	5.70329
19.40000	6.12761
19.50000	6.49556
19.60000	6.80419
19.70000	7.05111
19.80000	7.23447
19.90000	7.35301
20.00000	7.40599
20.10000	7.39322
20.20000	7.31507
20.30000	7.17242
20.40000	6.96665
20.50000	6.69965
20.60000	6.37380
20.70000	5.99197
20.80000	5.55745
20.90000	5.07401
21.00000	4.54584
21.10000	3.97753
21.20000	3.37405
21.30000	2.74073
21.40000	2.08320
21.50000	1.40735
21.60000	0.71931
21.70000	0.02534
21.80000	-0.66820
21.90000	-1.35492
22.00000	-2.02850
22.10000	-2.68276
22.20000	-3.31169
22.30000	-3.90959
22.40000	-4.47108
22.50000	-4.99118
22.60000	-5.46534
22.70000	-5.88952
22.80000	-6.26016
22.90000	-6.57426
23.00000	-6.82933
23.10000	-7.02347
23.20000	-7.15530
23.30000	-7.22399
23.40000	-7.22926
23.50000	-7.17133
23.60000	-7.05096
23.70000	-6.86939
23.80000	-6.62836
23.90000	-6.33007
24.00000	-5.97719
24.10000	-5.57283
24.20000	-5.12050
24.30000	-4.62416
24.40000	-4.08813
24.50000	-3.51709
24.60000	-2.91608
24.70000	-2.29043
24.80000	-1.64572
24.90000	-0.98777
25.00000	-0.32254
25.10000	0.34390
25.20000	1.00541
25.30000	1.65593
25.40000	2.28945
25.50000	2.90014
25.60000	3.48242
25.70000	4.03100
25.80000	4.54094
25.90000	5.00771
26.00000	5.42723
26.10000	5.79590
26.20000	6.11065
26.30000	6.36891
26.40000	6.56867
26.50000	6.70845
26.60000	6.78732
26.70000	6.80487
26.80000	6.76125
26.90000	6.65709
27.00000	6.49355
27.10000	6.27228
27.20000	5.99539
27.30000	5.66544
27.40000	5.28545
27.50000	4.85884
27.60000	4.38943
27.70000	3.88142
27.80000	3.33935
27.90000	2.76806
28.00000	2.17269
28.10000	1.55861
28.20000	0.93137
28.30000	0.29668
28.40000	-0.33968
28.50000	-0.97189
28.60000	-1.59416
28.70000	-2.20084
28.80000	-2.78638
28.90000	-3.34549
29.00000	-3.87317
29.10000	-4.36472
29.20000	-4.81582
29.30000	-5.22259
29.40000	-5.58157
29.50000	-5.88979
29.60000	-6.14475
29.70000	-6.34445
29.80000	-6.48741
29.90000	-6.57264
30.00000	-6.59965
30.10000	-6.56844
30.20000	-6.47952
30.30000	-6.33386
30.40000	-6.13288
30.50000	-5.87849
30.60000	-5.57299
30.70000	-5.21914
30.80000	-4.82008
30.90000	-4.37934
31.00000	-3.90081
31.10000	-3.38874
31.20000	-2.84765
31.30000	-2.28237
31.40000	-1.69795
31.50000	-1.09964
31.60000	-0.49286
31.70000	0.11690
31.80000	0.72411
31.90000	1.32322
32.00000	1.90879
32.10000	2.47551
32.20000	3.01826
32.30000	3.53217
32.40000	4.01267
32.50000	4.45553
32.60000	4.85692
32.70000	5.21341
32.80000	5.52203
32.90000	5.78025
33.00000	5.98603
33.10000	6.13780
33.20000	6.23449
33.30000	6.27548
33.40000	6.26066
33.50000	6.19038
33.60000	6.06544
33.70000	5.88710
33.80000	5.65704
33.90000	5.37740
34.00000	5.05069
34.10000	4.67983
34.20000	4.26811
34.30000	3.81918
34.40000	3.33701
34.50000	2.82589
34.60000	2.29038
34.70000	1.73527
34.80000	1.16555
34.90000	0.58639
35.00000	0.00304
35.10000	-0.57918
35.20000	-1.15494
35.30000	-1.71899
35.40000	-2.26618
35.50000	-2.79152
35.60000	-3.29025
35.70000	-3.75790
35.80000	-4.19030
35.90000	-4.58365
36.00000	-4.93453
36.10000	-5.23996
36.20000	-5.49739
36.30000	-5.70471
36.40000	-5.86030
36.50000	-5.96299
36.60000	-6.01210
36.70000	-6.00739
36.80000	-5.94909
36.90000	-5.83790
37.00000	-5.67493
37.10000	-5.46174
37.20000	-5.20031
37.30000	-4.89300
37.40000	-4.54258
37.50000	-4.15217
37.60000	-3.72525
37.70000	-3.26561
37.80000	-2.77736
37.90000	-2.26484
38.00000	-1.73267
38.10000	-1.18564
38.20000	-0.62869
38.30000	-0.06688
38.40000	0.49468
38.50000	1.05086
38.60000	1.59660
38.70000	2.12693
38.80000	2.63704
38.90000	3.12232
39.00000	3.57842
39.10000	4.00130
39.20000	4.38724
39.30000	4.73290
39.40000	5.03535
39.50000	5.29205
39.60000	5.50091
39.70000	5.66028
39.80000	5.76898
39.90000	5.82624
40.00000	5.83178
40.10000	5.78573
40.20000	5.68870
40.30000	5.54169
40.40000	5.34613
40.50000	5.10387
40.60000	4.81714
40.70000	4.48854
40.80000	4.12104
40.90000	3.71794
41.00000	3.28286
41.10000	2.81971
41.20000	2.33265
41.30000	1.82607
41.40000	1.30457
41.50000	0.77286
41.60000	0.23578
41.70000	-0.30176
41.80000	-0.83487
41.90000	-1.35869
42.00000	-1.86844
42.10000	-2.35952
42.20000	-2.82749
42.30000	-3.26815
42.40000	-3.67761
42.50000	-4.05225
42.60000	-4.38884
42.70000	-4.68450
42.80000	-4.93675
42.90000	-5.14353
43.00000	-5.30319
43.10000	-5.41451
43.20000	-5.47670
43.30000	-5.48940
43.40000	-5.45269
43.50000	-5.36705
43.60000	-5.23339
43.70000	-5.05301
43.80000	-4.82760
43.90000	-4.55924
44.00000	-4.25036
44.10000	-3.90375
44.20000	-3.52251
44.30000	-3.11006
44.40000	-2.67009
44.50000	-2.20655
44.60000	-1.72361
44.70000	-1.22562
44.80000	-0.71708
44.90000	-0.20262
45.00000	0.31310
45.10000	0.82538
45.20000	1.32957
45.30000	1.82108
45.40000	2.29548
45.50000	2.74848
45.60000	3.17604
45.70000	3.57436
45.80000	3.93994
45.90000	4.26962
46.00000	4.56058
46.10000	4.81038
46.20000	5.01696
46.30000	5.17868
46.40000	5.29430
46.50000	5.36299
46.60000	5.38433
46.70000	5.35832
46.80000	5.28535
46.90000	5.16621
47.00000	5.00209
47.10000	4.79453
47.20000	4.54545
47.30000	4.25711
47.40000	3.93212
47.50000	3.57337
47.60000	3.18408
47.70000	2.76771
47.80000	2.32797
47.90000	1.86881
48.00000	1.39433
48.10000	0.90881
48.20000	0.41661
48.30000	-0.07781
48.40000	-0.56998
48.50000	-1.05545
48.60000	-1.52983
48.70000	-1.98883
48.80000	-2.42832
48.90000	-2.84437
49.00000	-3.23327
49.10000	-3.59159
49.20000	-3.91619
49.30000	-4.20429
49.40000	-4.45341
49.50000	-4.66148
49.60000	-4.82679
49.70000	-4.94803
49.80000	-5.02427
49.90000	-5.05501
50.00000	-5.04010
50.10000	-4.97983
50.20000	-4.87485
50.30000	-4.72620
50.40000	-4.53527
50.50000	-4.30384
50.60000	-4.03401
50.70000	-3.72822
50.80000	-3.38921
50.90000	-3.02003
51.00000	-2.62399
51.10000	-2.20465
51.20000	-1.76578
51.30000	-1.31135
51.40000	-0.84547
51.50000	-0.37238
51.60000	0.10362
51.70000	0.57819
51.80000	1.04700
51.90000	1.50577
52.00000	1.95032
52.10000	2.37663
52.20000	2.78083
52.30000	3.15930
52.40000	3.50866
52.50000	3.82585
52.60000	4.10810
52.70000	4.35297
52.80000	4.55841
52.90000	4.72272
53.00000	4.84458
53.10000	4.92307
53.20000	4.95763
53.30000	4.94812
53.40000	4.89476
53.50000	4.79815
53.60000	4.65926
53.70000	4.47943
53.80000	4.26034
53.90000	4.00399
54.00000	3.71271
54.10000	3.38915
54.20000	3.03620
54.30000	2.65704
54.40000	2.25508
54.50000	1.83394
54.60000	1.39741
54.70000	0.94944
54.80000	0.49408
54.90000	0.03545
55.00000	-0.42227
55.10000	-0.87494
55.20000	-1.31844
55.30000	-1.74877
55.40000	-2.16205
55.50000	-2.55456
55.60000	-2.92280
55.70000	-3.26352
55.80000	-3.57373
55.90000	-3.85075
56.00000	-4.09221
56.10000	-4.29610
56.20000	-4.46073
56.30000	-4.58480
56.40000	-4.66738
56.50000	-4.70789
56.60000	-4.70613
56.70000	-4.66228
56.80000	-4.57686
56.90000	-4.45078
57.00000	-4.28526
57.10000	-4.08186
57.20000	-3.84249
57.30000	-3.56934
57.40000	-3.26488
57.50000	-2.93189
57.60000	-2.57337
57.70000	-2.19255
57.80000	-1.79286
57.90000	-1.37793
58.00000	-0.95149
58.10000	-0.51742
58.20000	-0.07964
58.30000	0.35788
58.40000	0.79117
58.50000	1.21629
58.60000	1.62942
58.70000	2.02680
58.80000	2.40489
58.90000	2.76029
59.00000	3.08985
59.10000	3.39067
59.20000	3.66013
59.30000	3.89590
59.40000	4.09598
59.50000	4.25870
59.60000	4.38273
59.70000	4.46709
59.80000	4.51116
59.90000	4.51468
60.00000	4.47772
60.10000	4.40074
60.20000	4.28451
60.30000	4.13014
60.40000	3.93908
60.50000	3.71308
60.60000	3.45420
60.70000	3.16476
60.80000	2.84738
60.90000	2.50490
61.00000	2.14040
61.10000	1.75715
61.20000	1.35860
61.30000	0.94833
61.40000	0.53005
61.50000	0.10752
61.60000	-0.31541
61.70000	-0.73495
61.80000	-1.14728
61.90000	-1.54868
62.00000	-1.93555
62.10000	-2.30440
62.20000	-2.65195
62.30000	-2.97510
62.40000	-3.27101
62.50000	-3.53710
62.60000	-3.77106
62.70000	-3.97091
62.80000	-4.13496
62.90000	-4.26187
63.00000	-4.35063
63.10000	-4.40059
63.20000	-4.41141
63.30000	-4.38312
63.40000	-4.31610
63.50000	-4.21103
63.60000	-4.06894
63.70000	-3.89119
63.80000	-3.67942
63.90000	-3.43557
64.00000	-3.16189
64.10000	-2.86084
64.20000	-2.53516
64.30000	-2.18779
64.40000	-1.82189
64.50000	-1.44076
64.60000	-1.04786
64.70000	-0.64676
64.80000	-0.24110
64.90000	0.16543
65.00000	0.56914
65.10000	0.96635
65.20000	1.35346
65.30000	1.72696
65.40000	2.08350
65.50000	2.41987
65.60000	2.73307
65.70000	3.02033
65.80000	3.27913
65.90000	3.50722
66.00000	3.70264
66.10000	3.86375
66.20000	3.98922
66.30000	4.07803
66.40000	4.12952
66.50000	4.14335
66.60000	4.11951
66.70000	4.05832
66.80000	3.96042
66.90000	3.82679
67.00000	3.65869
67.10000	3.45769
67.20000	3.22565
67.30000	2.96469
67.40000	2.67718
67.50000	2.36574
67.60000	2.03318
67.70000	1.68252
67.80000	1.31694
67.90000	0.93973
68.00000	0.55432
68.10000	0.16420
68.20000	-0.22708
68.30000	-0.61600
68.40000	-0.99902
68.50000	-1.37268
68.60000	-1.73363
68.70000	-2.07862
68.80000	-2.40456
68.90000	-2.70857
69.00000	-2.98797
69.10000	-3.24031
69.20000	-3.46341
69.30000	-3.65537
69.40000	-3.81457
69.50000	-3.93970
69.60000	-4.02977
69.70000	-4.08407
69.80000	-4.10226
69.90000	-4.08429
70.00000	-4.03041
70.10000	-3.94123
70.20000	-3.81761
70.30000	-3.66074
70.40000	-3.47209
70.50000	-3.25340
70.60000	-3.00668
70.70000	-2.73416
70.80000	-2.43832
70.90000	-2.12183
71.00000	-1.78755
71.10000	-1.43850
71.20000	-1.07783
71.30000	-0.70879
71.40000	-0.33473
71.50000	0.04099
71.60000	0.41497
71.70000	0.78384
71.80000	1.14427
71.90000	1.49304
72.00000	1.82702
72.10000	2.14322
72.20000	2.43886
72.30000	2.71133
72.40000	2.95824
72.50000	3.17746
72.60000	3.36712
72.70000	3.52560
72.80000	3.65159
72.90000	3.74408
73.00000	3.80234
73.10000	3.82597
73.20000	3.81485
73.30000	3.76918
73.40000	3.68946
73.50000	3.57647
73.60000	3.43130
73.70000	3.25531
73.80000	3.05011
73.90000	2.81758
74.00000	2.55983
74.10000	2.27921
74.20000	1.97824
74.30000	1.65965
74.40000	1.32633
74.50000	0.98127
74.60000	0.62761
74.70000	0.26855
74.80000	-0.09266
74.90000	-0.45275
75.00000	-0.80845
75.10000	-1.15656
75.20000	-1.49393
75.30000	-1.81752
75.40000	-2.12443
75.50000	-2.41191
75.60000	-2.67742
75.70000	-2.91861
75.80000	-3.13338
75.90000	-3.31985
76.00000	-3.47643
76.10000	-3.60179
76.20000	-3.69491
76.30000	-3.75503
76.40000	-3.78170
76.50000	-3.77477
76.60000	-3.73437
76.70000	-3.66095
76.80000	-3.55522
76.90000	-3.41818
77.00000	-3.25111
77.10000	-3.05554
77.20000	-2.83326
77.30000	-2.58628
77.40000	-2.31683
77.50000	-2.02735
77.60000	-1.72046
77.70000	-1.39892
77.80000	-1.06564
77.90000	-0.72363
78.00000	-0.37599
78.10000	-0.02586
78.20000	0.32359
78.30000	0.66920
78.40000	1.00786
78.50000	1.33649
78.60000	1.65216
78.70000	1.95204
78.80000	2.23345
78.90000	2.49391
79.00000	2.73111
79.10000	2.94299
79.20000	3.12773
79.30000	3.28374
79.40000	3.40973
79.50000	3.50465
79.60000	3.56776
79.70000	3.59860
79.80000	3.59698
79.90000	3.56303
80.00000	3.49713
80.10000	3.39995
80.20000	3.27246
80.30000	3.11585
80.40000	2.93159
80.50000	2.72138
80.60000	2.48716
80.70000	2.23107
80.80000	1.95544
80.90000	1.66278
81.00000	1.35576
81.10000	1.03717
81.20000	0.70990
81.30000	0.37693
81.40000	0.04128
81.50000	-0.29399
81.60000	-0.62584
81.70000	-0.95126
81.80000	-1.26732
81.90000	-1.57115
82.00000	-1.86003
82.10000	-2.13137
82.20000	-2.38276
82.30000	-2.61197
82.40000	-2.81699
82.50000	-2.99603
82.60000	-3.14756
82.70000	-3.27029
82.80000	-3.36319
82.90000	-3.42551
83.00000	-3.45679
83.10000	-3.45681
83.20000	-3.42566
83.30000	-3.36369
83.40000	-3.27152
83.50000	-3.15004
83.60000	-3.00039
83.70000	-2.82396
83.80000	-2.62237
83.90000	-2.39746
84.00000	-2.15128
84.10000	-1.88606
84.20000	-1.60421
84.30000	-1.30828
84.40000	-1.00095
84.50000	-0.68499
84.60000	-0.36327
84.70000	-0.03870
84.80000	0.28580
84.90000	0.60730
85.00000	0.92289
85.10000	1.22975
85.20000	1.52512
85.30000	1.80637
85.40000	2.07100
85.50000	2.31668
85.60000	2.54123
85.70000	2.74272
85.80000	2.91941
85.90000	3.06978
86.00000	3.19258
86.10000	3.28680
86.20000	3.35168
86.30000	3.38673
86.40000	3.39174
86.50000	3.36675
86.60000	3.31206
86.70000	3.22824
86.80000	3.11610
86.90000	2.97673
87.00000	2.81141
87.10000	2.62167
87.20000	2.40927
87.30000	2.17613
87.40000	1.92439
87.50000	1.65632
87.60000	1.37437
87.70000	1.08108
87.80000	0.77912
87.90000	0.47123
88.00000	0.16019
88.10000	-0.15118
88.20000	-0.46006
88.30000	-0.76367
88.40000	-1.05926
88.50000	-1.34417
88.60000	-1.61584
88.70000	-1.87186
88.80000	-2.10993
88.90000	-2.32795
89.00000	-2.52401
89.10000	-2.69640
89.20000	-2.84362
89.30000	-2.96442
89.40000	-3.05779
89.50000	-3.12295
89.60000	-3.15941
89.70000	-3.16690
89.80000	-3.14544
89.90000	-3.09527
90.00000	-3.01692
90.10000	-2.91114
90.20000	-2.77893
90.30000	-2.62153
90.40000	-2.44038
90.50000	-2.23715
90.60000	-2.01369
90.70000	-1.77203
90.80000	-1.51438
90.90000	-1.24305
91.00000	-0.96052
91.10000	-0.66935
91.20000	-0.37217
91.30000	-0.07167
91.40000	0.22943
91.50000	0.52840
91.60000	0.82254
91.70000	1.10921
91.80000	1.38583
91.90000	1.64991
92.00000	1.89910
92.10000	2.13117
92.20000	2.34409
92.30000	2.53596
92.40000	2.70514
92.50000	2.85014
92.60000	2.96973
92.70000	3.06292
92.80000	3.12892
92.90000	3.16724
93.00000	3.17759
93.10000	3.15996
93.20000	3.11457
93.30000	3.04190
93.40000	2.94265
93.50000	2.81778
93.60000	2.66845
93.70000	2.49605
93.80000	2.30216
93.90000	2.08856
94.00000	1.85720
94.10000	1.61018
94.20000	1.34975
94.30000	1.07828
94.40000	0.79823
94.50000	0.51213
94.60000	0.22259
94.70000	-0.06779
94.80000	-0.35637
94.90000	-0.64055
95.00000	-0.91777
95.10000	-1.18554
95.20000	-1.44147
95.30000	-1.68326
95.40000	-1.90877
95.50000	-2.11601
95.60000	-2.30316
95.70000	-2.46861
95.80000	-2.61091
95.90000	-2.72887
96.00000	-2.82149
96.10000	-2.88802
96.20000	-2.92795
96.30000	-2.94100
96.40000	-2.92711
96.50000	-2.88650
96.60000	-2.81960
96.70000	-2.72708
96.80000	-2.60982
96.90000	-2.46894
97.00000	-2.30575
97.10000	-2.12175
97.20000	-1.91865
97.30000	-1.69830
97.40000	-1.46271
97.50000	-1.21404
97.60000	-0.95453
97.70000	-0.68656
97.80000	-0.41255
97.90000	-0.13498
98.00000	0.14362
98.10000	0.42075
98.20000	0.69388
98.30000	0.96058
98.40000	1.21842
98.50000	1.46512
98.60000	1.69845
98.70000	1.91634
98.80000	2.11686
98.90000	2.29826
99.00000	2.45894
99.10000	2.59751
99.20000	2.71278
99.30000	2.80377
99.40000	2.86973
99.50000	2.91013
99.60000	2.92468
99.70000	2.91328
99.80000	2.87612
99.90000	2.81357
100.00000	2.72623
100.10000	2.61495
100.20000	2.48074
100.30000	2.32486
100.40000	2.14872
100.50000	1.95392
100.60000	1.74224
100.70000	1.51559
100.80000	1.27602
100.90000	1.02570
101.00000	0.76688
101.10000	0.50190
101.20000	0.23315
101.30000	-0.03694
101.40000	-0.30595
101.50000	-0.57146
101.60000	-0.83109
101.70000	-1.08250
101.80000	-1.32345
101.90000	-1.55179
102.00000	-1.76550
102.10000	-1.96269
102.20000	-2.14163
102.30000	-2.30076
102.40000	-2.43870
102.50000	-2.55427
102.60000	-2.64649
102.70000	-2.71461
102.80000	-2.75808
102.90000	-2.77658
103.00000	-2.77000
103.10000	-2.73848
103.20000	-2.68235
103.30000	-2.60219
103.40000	-2.49875
103.50000	-2.37304
103.60000	-2.22621
103.70000	-2.05964
103.80000	-1.87486
103.90000	-1.67357
104.00000	-1.45760
104.10000	-1.22895
104.20000	-0.98968
104.30000	-0.74199
104.40000	-0.48812
104.50000	-0.23040
104.60000	0.02884
104.70000	0.28724
104.80000	0.54247
104.90000	0.79220
105.00000	1.03418
105.10000	1.26623
105.20000	1.48626
105.30000	1.69232
105.40000	1.88255
105.50000	2.05527
105.60000	2.20896
105.70000	2.34228
105.80000	2.45406
105.90000	2.54336
106.00000	2.60941
106.10000	2.65168
106.20000	2.66985
106.30000	2.66379
106.40000	2.63361
106.50000	2.57965
106.60000	2.50242
106.70000	2.40266
106.80000	2.28131
106.90000	2.13950
107.00000	1.97853
107.10000	1.79988
107.20000	1.60517
107.30000	1.39618
107.40000	1.17482
107.50000	0.94308
107.60000	0.70308
107.70000	0.45698
107.80000	0.20701
107.90000	-0.04457
108.00000	-0.29549
108.10000	-0.54349
108.20000	-0.78634
108.30000	-1.02186
108.40000	-1.24795
108.50000	-1.46259
108.60000	-1.66387
108.70000	-1.85003
108.80000	-2.01942
108.90000	-2.17058
109.00000	-2.30218
109.10000	-2.41312
109.20000	-2.50245
109.30000	-2.56943
109.40000	-2.61354
109.50000	-2.63445
109.60000	-2.63202
109.70000	-2.60636
109.80000	-2.55776
109.90000	-2.48671
110.00000	-2.39390
110.10000	-2.28023
110.20000	-2.14675
110.30000	-1.99472
110.40000	-1.82553
110.50000	-1.64075
110.60000	-1.44207
110.70000	-1.23129
110.80000	-1.01035
110.90000	-0.78124
111.00000	-0.54606
111.10000	-0.30693
111.20000	-0.06603
111.30000	0.17448
111.40000	0.41242
111.50000	0.64565
111.60000	0.87205
111.70000	1.08962
111.80000	1.29639
111.90000	1.49053
112.00000	1.67031
112.10000	1.83414
112.20000	1.98058
112.30000	2.10835
112.40000	2.21635
112.50000	2.30366
112.60000	2.36953
112.70000	2.41342
112.80000	2.43500
112.90000	2.43412
113.00000	2.41083
113.10000	2.36540
113.20000	2.29827
113.30000	2.21009
113.40000	2.10170
113.50000	1.97411
113.60000	1.82848
113.70000	1.66617
113.80000	1.48865
113.90000	1.29754
114.00000	1.09460
114.10000	0.88165
114.20000	0.66063
114.30000	0.43354
114.40000	0.20245
114.50000	-0.03056
114.60000	-0.26339
114.70000	-0.49394
114.80000	-0.72012
114.90000	-0.93991
115.00000	-1.15134
115.10000	-1.35251
115.20000	-1.54163
115.30000	-1.71703
115.40000	-1.87716
115.50000	-2.02060
115.60000	-2.14611
115.70000	-2.25261
115.80000	-2.33917
115.90000	-2.40508
116.00000	-2.44979
116.10000	-2.47294
116.20000	-2.47439
116.30000	-2.45417
116.40000	-2.41250
116.50000	-2.34982
116.60000	-2.26671
116.70000	-2.16399
116.80000	-2.04259
116.90000	-1.90365
117.00000	-1.74844
117.10000	-1.57839
117.20000	-1.39505
117.30000	-1.20009
117.40000	-0.99528
117.50000	-0.78248
117.60000	-0.56363
117.70000	-0.34070
117.80000	-0.11570
117.90000	0.10931
118.00000	0.33233
118.10000	0.55134
118.20000	0.76436
118.30000	0.96950
118.40000	1.16492
118.50000	1.34888
118.60000	1.51974
118.70000	1.67599
118.80000	1.81627
118.90000	1.93936
119.00000	2.04418
119.10000	2.12985
119.20000	2.19564
119.30000	2.24101
119.40000	2.26562
119.50000	2.26929
119.60000	2.25204
119.70000	2.21409
119.80000	2.15582
119.90000	2.07780
120.00000	1.98079
120.10000	1.86571
120.20000	1.73361
120.30000	1.58574
120.40000	1.42345
120.50000	1.24824
120.60000	1.06171
120.70000	0.86557
120.80000	0.66161
120.90000	0.45168
121.00000	0.23770
121.10000	0.02161
121.20000	-0.19463
121.30000	-0.40907
121.40000	-0.61976
121.50000	-0.82481
121.60000	-1.02238
121.70000	-1.21068
121.80000	-1.38803
121.90000	-1.55287
122.00000	-1.70372
122.10000	-1.83925
122.20000	-1.95828
122.30000	-2.05977
122.40000	-2.14284
122.50000	-2.20679
122.60000	-2.25109
122.70000	-2.27537
122.80000	-2.27947
122.90000	-2.26339
123.00000	-2.22731
123.10000	-2.17161
123.20000	-2.09680
123.30000	-2.00361
123.40000	-1.89289
123.50000	-1.76567
123.60000	-1.62312
123.70000	-1.46655
123.80000	-1.29736
123.90000	-1.11712
124.00000	-0.92744
124.10000	-0.73004
124.20000	-0.52672
124.30000	-0.31931
124.40000	-0.10966
124.50000	0.10031
124.60000	0.30874
124.70000	0.51376
124.80000	0.71351
124.90000	0.90624
125.00000	1.09021
125.10000	1.26380
125.20000	1.42547
125.30000	1.57380
125.40000	1.70751
125.50000	1.82542
125.60000	1.92652
125.70000	2.00995
125.80000	2.07501
125.90000	2.12118
126.00000	2.14808
126.10000	2.15553
126.20000	2.14352
126.30000	2.11221
126.40000	2.06191
126.50000	1.99315
126.60000	1.90657
126.70000	1.80300
126.80000	1.68340
126.90000	1.54889
127.00000	1.40072
127.10000	1.24024
127.20000	1.06892
127.30000	0.88834
127.40000	0.70014
127.50000	0.50604
127.60000	0.30781
127.70000	0.10724
127.80000	-0.09385
127.90000	-0.29363
128.00000	-0.49030
128.10000	-0.68208
128.20000	-0.86724
128.30000	-1.04412
128.40000	-1.21113
128.50000	-1.36679
128.60000	-1.50970
128.70000	-1.63860
128.80000	-1.75235
128.90000	-1.84996
129.00000	-1.93056
129.10000	-1.99348
129.20000	-2.03818
129.30000	-2.06429
129.40000	-2.07160
129.50000	-2.06009
129.60000	-2.02988
129.70000	-1.98129
129.80000	-1.91478
129.90000	-1.83097
130.00000	-1.73064
130.10000	-1.61472
130.20000	-1.48426
130.30000	-1.34047
130.40000	-1.18465
130.50000	-1.01822
130.60000	-0.84269
130.70000	-0.65964
130.80000	-0.47075
130.90000	-0.27770
131.00000	-0.08226
131.10000	0.11383
131.20000	0.30879
131.30000	0.50087
131.40000	0.68834
131.50000	0.86953
131.60000	1.04282
131.70000	1.20667
131.80000	1.35961
131.90000	1.50031
132.00000	1.62751
132.10000	1.74012
132.20000	1.83716
132.30000	1.91779
132.40000	1.98133
132.50000	2.02726
132.60000	2.05521
132.70000	2.06498
132.80000	2.05653
132.90000	2.02997
133.00000	1.98561
133.10000	1.92387
133.20000	1.84536
133.30000	1.75083
133.40000	1.64117
133.50000	1.51740
133.60000	1.38066
133.70000	1.23222
133.80000	1.07344
133.90000	0.90579
134.00000	0.73078
134.10000	0.55003
134.20000	0.36517
134.30000	0.17789
134.40000	-0.01012
134.50000	-0.19714
134.60000	-0.38149
134.70000	-0.56151
134.80000	-0.73557
134.90000	-0.90212
135.00000	-1.05965
135.10000	-1.20677
135.20000	-1.34218
135.30000	-1.46466
135.40000	-1.57315
135.50000	-1.66669
135.60000	-1.74449
135.70000	-1.80587
135.80000	-1.85032
135.90000	-1.87749
136.00000	-1.88715
136.10000	-1.87927
136.20000	-1.85396
136.30000	-1.81148
136.40000	-1.75226
136.50000	-1.67685
136.60000	-1.58597
136.70000	-1.48047
136.80000	-1.36133
136.90000	-1.22964
137.00000	-1.08661
137.10000	-0.93355
137.20000	-0.77185
137.30000	-0.60299
137.40000	-0.42850
137.50000	-0.24996
137.60000	-0.06898
137.70000	0.11280
137.80000	0.29373
137.90000	0.47220
138.00000	0.64659
138.10000	0.81536
138.20000	0.97698
138.30000	1.13001
138.40000	1.27311
138.50000	1.40500
138.60000	1.52452
138.70000	1.63063
138.80000	1.72240
138.90000	1.79904
139.00000	1.85991
139.10000	1.90449
139.20000	1.93241
139.30000	1.94348
139.40000	1.93763
139.50000	1.91495
139.60000	1.87568
139.70000	1.82021
139.80000	1.74907
139.90000	1.66293
140.00000	1.56259
140.10000	1.44899
140.20000	1.32316
140.30000	1.18627
140.40000	1.03955
140.50000	0.88434
140.60000	0.72205
140.70000	0.55416
140.80000	0.38218
140.90000	0.20766
141.00000	0.03219
141.10000	-0.14267
141.20000	-0.31534
141.30000	-0.48427
141.40000	-0.64795
141.50000	-0.80491
141.60000	-0.95376
141.70000	-1.09318
141.80000	-1.22193
141.90000	-1.33889
142.00000	-1.44302
142.10000	-1.53342
142.20000	-1.60931
142.30000	-1.67005
142.40000	-1.71512
142.50000	-1.74416
142.60000	-1.75695
142.70000	-1.75340
142.80000	-1.73360
142.90000	-1.69776
143.00000	-1.64623
143.10000	-1.57952
143.20000	-1.49826
143.30000	-1.40321
143.40000	-1.29526
143.50000	-1.17541
143.60000	-1.04476
143.70000	-0.90451
143.80000	-0.75595
143.90000	-0.60043
144.00000	-0.43938
144.10000	-0.27425
144.20000	-0.10656
144.30000	0.06218
144.40000	0.23043
144.50000	0.39668
144.60000	0.55942
144.70000	0.71718
144.80000	0.86855
144.90000	1.01216
145.00000	1.14673
145.10000	1.27106
145.20000	1.38404
145.30000	1.48468
145.40000	1.57208
145.50000	1.64549
145.60000	1.70426
145.70000	1.74790
145.80000	1.77604
145.90000	1.78846
146.00000	1.78507
146.10000	1.76592
146.20000	1.73123
146.30000	1.68133
146.40000	1.61669
146.50000	1.53793
146.60000	1.44576
146.70000	1.34104
146.80000	1.22473
146.90000	1.09790
147.00000	0.96169
147.10000	0.81735
147.20000	0.66619
147.30000	0.50957
147.40000	0.34892
147.50000	0.18567
147.60000	0.02131
147.70000	-0.14270
147.80000	-0.30487
147.90000	-0.46376
148.00000	-0.61795
148.10000	-0.76606
148.20000	-0.90678
148.30000	-1.03886
148.40000	-1.16114
148.50000	-1.27254
148.60000	-1.37210
148.70000	-1.45895
148.80000	-1.53235
148.90000	-1.59168
149.00000	-1.63643
149.10000	-1.66627
149.20000	-1.68094
149.30000	-1.68038
149.40000	-1.66462
149.50000	-1.63384
149.60000	-1.58838
149.70000	-1.52867
149.80000	-1.45528
149.90000	-1.36893
150.00000	-1.27041
150.10000	-1.16065
150.20000	-1.04066
150.30000	-0.91155
150.40000	-0.77451
150.50000	-0.63080
150.60000	-0.48173
150.70000	-0.32866
150.80000	-0.17298
150.90000	-0.01612
151.00000	0.14051
151.10000	0.29549
151.20000	0.44741
151.30000	0.59491
151.40000	0.73665
151.50000	0.87138
151.60000	0.99787
151.70000	1.11500
151.80000	1.22173
151.90000	1.31712
152.00000	1.40032
152.10000	1.47061
152.20000	1.52737
152.30000	1.57012
152.40000	1.59850
152.50000	1.61227
152.60000	1.61133
152.70000	1.59573
152.80000	1.56562
152.90000	1.52129
153.00000	1.46317
153.10000	1.39180
153.20000	1.30783
153.30000	1.21205
153.40000	1.10532
153.50000	0.98862
153.60000	0.86301
153.70000	0.72963
153.80000	0.58969
153.90000	0.44445
154.00000	0.29522
154.10000	0.14335
154.20000	-0.00980
154.30000	-0.16285
154.40000	-0.31443
154.50000	-0.46318
154.60000	-0.60777
154.70000	-0.74691
154.80000	-0.87937
154.90000	-1.00396
155.00000	-1.11960
155.10000	-1.22525
155.20000	-1.32001
155.30000	-1.40303
155.40000	-1.47361
155.50000	-1.53114
155.60000	-1.57513
155.70000	-1.60523
155.80000	-1.62120
155.90000	-1.62293
156.00000	-1.61044
156.10000	-1.58388
156.20000	-1.54352
156.30000	-1.48976
156.40000	-1.42311
156.50000	-1.34421
156.60000	-1.25379
156.70000	-1.15270
156.80000	-1.04187
156.90000	-0.92232
157.00000	-0.79515
157.10000	-0.66153
157.20000	-0.52269
157.30000	-0.37988
157.40000	-0.23441
157.50000	-0.08759
157.60000	0.05922
157.70000	0.20472
157.80000	0.34757
157.90000	0.48650
158.00000	0.62025
158.10000	0.74762
158.20000	0.86747
158.30000	0.97872
158.40000	1.08041
158.50000	1.17161
158.60000	1.25153
158.70000	1.31947
158.80000	1.37484
158.90000	1.41717
159.00000	1.44611
159.10000	1.46141
159.20000	1.46297
159.30000	1.45081
159.40000	1.42505
159.50000	1.38597
159.60000	1.33394
159.70000	1.26945
159.80000	1.19311
159.90000	1.10562
160.00000	1.00780
160.10000	0.90055
160.20000	0.78485
160.30000	0.66175
160.40000	0.53239
160.50000	0.39794
160.60000	0.25961
160.70000	0.11867
160.80000	-0.02362
160.90000	-0.16596
161.00000	-0.30707
161.10000	-0.44569
161.20000	-0.58056
161.30000	-0.71049
161.40000	-0.83431
161.50000	-0.95091
161.60000	-1.05927
161.70000	-1.15842
161.80000	-1.24750
161.90000	-1.32572
162.00000	-1.39240
162.10000	-1.44698
162.20000	-1.48898
162.30000	-1.51806
162.40000	-1.53399
162.50000	-1.53665
162.60000	-1.52605
162.70000	-1.50231
162.80000	-1.46569
162.90000	-1.41652
163.00000	-1.35529
163.10000	-1.28256
163.20000	-1.19902
163.30000	-1.10544
163.40000	-1.00267
163.50000	-0.89166
163.60000	-0.77343
163.70000	-0.64905
163.80000	-0.51965
163.90000	-0.38640
164.00000	-0.25052
164.10000	-0.11322
164.20000	0.02426
164.30000	0.16067
164.40000	0.29479
164.50000	0.42543
164.60000	0.55142
164.70000	0.67162
164.80000	0.78498
164.90000	0.89050
165.00000	0.98724
165.10000	1.07435
165.20000	1.15108
165.30000	1.21676
165.40000	1.27082
165.50000	1.31283
165.60000	1.34242
165.70000	1.35936
165.80000	1.36354
165.90000	1.35494
166.00000	1.33368
166.10000	1.29998
166.20000	1.25418
166.30000	1.19671
166.40000	1.12811
166.50000	1.04905
166.60000	0.96024
166.70000	0.86252
166.80000	0.75678
166.90000	0.64400
167.00000	0.52521
167.10000	0.40150
167.20000	0.27398
167.30000	0.14384
167.40000	0.01223
167.50000	-0.11963
167.60000	-0.25055
167.70000	-0.37937
167.80000	-0.50490
167.90000	-0.62602
168.00000	-0.74165
168.10000	-0.85075
168.20000	-0.95234
168.30000	-1.04552
168.40000	-1.12947
168.50000	-1.20343
168.60000	-1.26676
168.70000	-1.31891
168.80000	-1.35943
168.90000	-1.38796
169.00000	-1.40428
169.10000	-1.40825
169.20000	-1.39986
169.30000	-1.37920
169.40000	-1.34648
169.50000	-1.30201
169.60000	-1.24620
169.70000	-1.17958
169.80000	-1.10275
169.90000	-1.01642
170.00000	-0.92138
170.10000	-0.81850
170.20000	-0.70870
170.30000	-0.59298
170.40000	-0.47238
170.50000	-0.34800
170.60000	-0.22096
170.70000	-0.09240
170.80000	0.03653
170.90000	0.16468
171.00000	0.29088
171.10000	0.41403
171.20000	0.53301
171.30000	0.64678
171.40000	0.75433
171.50000	0.85470
171.60000	0.94702
171.70000	1.03047
171.80000	1.10434
171.90000	1.16798
172.00000	1.22085
172.10000	1.26250
172.20000	1.29260
172.30000	1.31090
172.40000	1.31727
172.50000	1.31169
172.60000	1.29423
172.70000	1.26510
172.80000	1.22458
172.90000	1.17307
173.00000	1.11106
173.10000	1.03915
173.20000	0.95800
173.30000	0.86838
173.40000	0.77111
173.50000	0.66710
173.60000	0.55730
173.70000	0.44272
173.80000	0.32442
173.90000	0.20347
174.00000	0.08097
174.10000	-0.04195
174.20000	-0.16418
174.30000	-0.28461
174.40000	-0.40215
174.50000	-0.51574
174.60000	-0.62435
174.70000	-0.72702
174.80000	-0.82281
174.90000	-0.91087
175.00000	-0.99042
175.10000	-1.06075
175.20000	-1.12124
175.30000	-1.17136
175.40000	-1.21067
175.50000	-1.23883
175.60000	-1.25561
175.70000	-1.26088
175.80000	-1.25460
175.90000	-1.23686
176.00000	-1.20781
176.10000	-1.16776
176.20000	-1.11706
176.30000	-1.05619
176.40000	-0.98572
176.50000	-0.90630
176.60000	-0.81863
176.70000	-0.72354
176.80000	-0.62187
176.90000	-0.51456
177.00000	-0.40257
177.10000	-0.28692
177.20000	-0.16864
177.30000	-0.04881
177.40000	0.07151
177.50000	0.19124
177.60000	0.30930
177.70000	0.42464
177.80000	0.53624
177.90000	0.64309
178.00000	0.74427
178.10000	0.83887
178.20000	0.92607
178.30000	1.00510
178.40000	1.07527
178.50000	1.13598
178.60000	1.18671
178.70000	1.22703
178.80000	1.25661
178.90000	1.27520
179.00000	1.28268
179.10000	1.27901
179.20000	1.26424
179.30000	1.23855
179.40000	1.20218
179.50000	1.15549
179.60000	1.09894
179.70000	1.03304
179.80000	0.95843
179.90000	0.87578
180.00000	0.78587
180.10000	0.68953
180.20000	0.58763
180.30000	0.48111
180.40000	0.37095
180.50000	0.25813
180.60000	0.14370
180.70000	0.02869
180.80000	-0.08587
180.90000	-0.19893
181.00000	-0.30948
181.10000	-0.41651
181.20000	-0.51908
181.30000	-0.61625
181.40000	-0.70717
181.50000	-0.79101
181.60000	-0.86704
181.70000	-0.93459
181.80000	-0.99305
181.90000	-1.04192
182.00000	-1.08078
182.10000	-1.10929
182.20000	-1.12721
182.30000	-1.13440
182.40000	-1.13081
182.50000	-1.11651
182.60000	-1.09162
182.70000	-1.05641
182.80000	-1.01119
182.90000	-0.95640
183.00000	-0.89255
183.10000	-0.82023
183.20000	-0.74010
183.30000	-0.65289
183.40000	-0.55941
183.50000	-0.46051
183.60000	-0.35709
183.70000	-0.25008
183.80000	-0.14047
183.90000	-0.02923
184.00000	0.08262
184.10000	0.19407
184.20000	0.30412
184.30000	0.41179
184.40000	0.51610
184.50000	0.61611
184.60000	0.71095
184.70000	0.79976
184.80000	0.88175
184.90000	0.95620
185.00000	1.02246
185.10000	1.07994
185.20000	1.12815
185.30000	1.16667
185.40000	1.19517
185.50000	1.21342
185.60000	1.22128
185.70000	1.21869
185.80000	1.20571
185.90000	1.18247
186.00000	1.14920
186.10000	1.10623
186.20000	1.05395
186.30000	0.99286
186.40000	0.92352
186.50000	0.84658
186.60000	0.76275
186.70000	0.67278
186.80000	0.57751
186.90000	0.47780
187.00000	0.37455
187.10000	0.26871
187.20000	0.16123
187.30000	0.05308
187.40000	-0.05477
187.50000	-0.16134
187.60000	-0.26568
187.70000	-0.36685
187.80000	-0.46396
187.90000	-0.55614
188.00000	-0.64257
188.10000	-0.72249
188.20000	-0.79519
188.30000	-0.86005
188.40000	-0.91649
188.50000	-0.96404
188.60000	-1.00229
188.70000	-1.03091
188.80000	-1.04969
188.90000	-1.05847
189.00000	-1.05720
189.10000	-1.04593
189.20000	-1.02478
189.30000	-0.99396
189.40000	-0.95379
189.50000	-0.90464
189.60000	-0.84699
189.70000	-0.78137
189.80000	-0.70840
189.90000	-0.62875
190.00000	-0.54316
190.10000	-0.45243
190.20000	-0.35737
190.30000	-0.25886
190.40000	-0.15781
190.50000	-0.05512
190.60000	0.04826
190.70000	0.15141
190.80000	0.25338
190.90000	0.35326
191.00000	0.45015
191.10000	0.54317
191.20000	0.63149
191.30000	0.71433
191.40000	0.79093
191.50000	0.86063
191.60000	0.92280
191.70000	0.97690
191.80000	1.02244
191.90000	1.05904
192.00000	1.08638
192.10000	1.10423
192.20000	1.11243
192.30000	1.11093
192.40000	1.09976
192.50000	1.07903
192.60000	1.04895
192.70000	1.00978
192.80000	0.96190
192.90000	0.90575
193.00000	0.84185
193.10000	0.77076
193.20000	0.69315
193.30000	0.60971
193.40000	0.52119
193.50000	0.42841
193.60000	0.33218
193.70000	0.23338
193.80000	0.13290
193.90000	0.03162
194.00000	-0.06953
194.10000	-0.16967
194.20000	-0.26789
194.30000	-0.36333
194.40000	-0.45514
194.50000	-0.54250
194.60000	-0.62465
194.70000	-0.70087
194.80000	-0.77049
194.90000	-0.83290
195.00000	-0.88757
195.10000	-0.93402
195.20000	-0.97187
195.30000	-1.00079
195.40000	-1.02055
195.50000	-1.03100
195.60000	-1.03207
195.70000	-1.02377
195.80000	-1.00622
195.90000	-0.97959
196.00000	-0.94415
196.10000	-0.90023
196.20000	-0.84827
196.30000	-0.78875
196.40000	-0.72222
196.50000	-0.64931
196.60000	-0.57070
196.70000	-0.48711
196.80000	-0.39931
196.90000	-0.30811
197.00000	-0.21434
197.10000	-0.11886
197.20000	-0.02255
197.30000	0.07373
197.40000	0.16908
197.50000	0.26266
197.60000	0.35360
197.70000	0.44109
197.80000	0.52434
197.90000	0.60260
198.00000	0.67516
198.10000	0.74137
198.20000	0.80064
198.30000	0.85244
198.40000	0.89632
198.50000	0.93188
198.60000	0.95882
198.70000	0.97690
198.80000	0.98596
198.90000	0.98595
199.00000	0.97686
199.10000	0.95880
199.20000	0.93193
199.30000	0.89651
199.40000	0.85287
199.50000	0.80141
199.60000	0.74260
199.70000	0.67698
199.80000	0.60515
199.90000	0.52776
200.00000	0.44551
200.10000	0.35915
200.20000	0.26946
200.30000	0.17724
200.40000	0.08332
200.50000	-0.01145
200.60000	-0.10622
200.70000	-0.20015
200.80000	-0.29240
200.90000	-0.38215
201.00000	-0.46860
201.10000	-0.55098
201.20000	-0.62858
201.30000	-0.70070
201.40000	-0.76672
201.50000	-0.82607
201.60000	-0.87822
201.70000	-0.92273
201.80000	-0.95923
201.90000	-0.98740
202.00000	-1.00702
202.10000	-1.01794
202.20000	-1.02008
202.30000	-1.01344
202.40000	-0.99812
202.50000	-0.97427
202.60000	-0.94213
202.70000	-0.90200
202.80000	-0.85428
202.90000	-0.79942
203.00000	-0.73791
203.10000	-0.67034
203.20000	-0.59733
203.30000	-0.51955
203.40000	-0.43771
203.50000	-0.35257
203.60000	-0.26489
203.70000	-0.17547
203.80000	-0.08513
203.90000	0.00531
204.00000	0.09504
204.10000	0.18324
204.20000	0.26913
204.30000	0.35193
204.40000	0.43090
204.50000	0.50533
204.60000	0.57456
204.70000	0.63796
204.80000	0.69499
204.90000	0.74512
205.00000	0.78793
205.10000	0.82304
205.20000	0.85014
205.30000	0.86901
205.40000	0.87947
205.50000	0.88147
205.60000	0.87498
205.70000	0.86008
205.80000	0.83692
205.90000	0.80571
206.00000	0.76676
206.10000	0.72042
206.20000	0.66712
206.30000	0.60735
206.40000	0.54165
206.50000	0.47064
206.60000	0.39495
206.70000	0.31526
206.80000	0.23232
206.90000	0.14686
207.00000	0.05965
207.10000	-0.02851
207.20000	-0.11683
207.30000	-0.20451
207.40000	-0.29077
207.50000	-0.37484
207.60000	-0.45596
207.70000	-0.53340
207.80000	-0.60648
207.90000	-0.67455
208.00000	-0.73699
208.10000	-0.79327
208.20000	-0.84288
208.30000	-0.88539
208.40000	-0.92042
208.50000	-0.94769
208.60000	-0.96695
208.70000	-0.97804
208.80000	-0.98089
208.90000	-0.97548
209.00000	-0.96187
209.10000	-0.94021
209.20000	-0.91069
209.30000	-0.87360
209.40000	-0.82928
209.50000	-0.77816
209.60000	-0.72069
209.70000	-0.65741
209.80000	-0.58889
209.90000	-0.51576
210.00000	-0.43869
210.10000	-0.35838
210.20000	-0.27555
210.30000	-0.19096
210.40000	-0.10536
210.50000	-0.01954
210.60000	0.06575
210.70000	0.14972
210.80000	0.23164
210.90000	0.31076
211.00000	0.38639
211.10000	0.45785
211.20000	0.52450
211.30000	0.58576
211.40000	0.64110
211.50000	0.69001
211.60000	0.73209
211.70000	0.76697
211.80000	0.79436
211.90000	0.81401
212.00000	0.82579
212.10000	0.82960
212.20000	0.82542
212.30000	0.81333
212.40000	0.79343
212.50000	0.76595
212.60000	0.73113
212.70000	0.68932
212.80000	0.64091
212.90000	0.58635
213.00000	0.52616
213.10000	0.46089
213.20000	0.39114
213.30000	0.31756
213.40000	0.24082
213.50000	0.16163
213.60000	0.08070
213.70000	-0.00122
213.80000	-0.08339
213.90000	-0.16506
214.00000	-0.24550
214.10000	-0.32396
214.20000	-0.39976
214.30000	-0.47219
214.40000	-0.54062
214.50000	-0.60442
214.60000	-0.66303
214.70000	-0.71593
214.80000	-0.76264
214.90000	-0.80274
215.00000	-0.83589
215.10000	-0.86180
215.20000	-0.88023
215.30000	-0.89104
215.40000	-0.89414
215.50000	-0.88950
215.60000	-0.87718
215.70000	-0.85729
215.80000	-0.83003
215.90000	-0.79565
216.00000	-0.75446
216.10000	-0.70684
216.20000	-0.65322
216.30000	-0.59409
216.40000	-0.52999
216.50000	-0.46150
216.60000	-0.38923
216.70000	-0.31383
216.80000	-0.23598
216.90000	-0.15637
217.00000	-0.07573
217.10000	0.00523
217.20000	0.08578
217.30000	0.16522
217.40000	0.24283
217.50000	0.31793
217.60000	0.38985
217.70000	0.45796
217.80000	0.52167
217.90000	0.58040
218.00000	0.63366
218.10000	0.68098
218.20000	0.72195
218.30000	0.75623
218.40000	0.78353
218.50000	0.80362
218.60000	0.81634
218.70000	0.82161
218.80000	0.81939
218.90000	0.80973
219.00000	0.79275
219.10000	0.76860
219.20000	0.73754
219.30000	0.69986
219.40000	0.65592
219.50000	0.60614
219.60000	0.55098
219.70000	0.49096
219.80000	0.42664
219.90000	0.35861
220.00000	0.28749
220.10000	0.21395
220.20000	0.13866
220.30000	0.06230
220.40000	-0.01442
220.50000	-0.09081
220.60000	-0.16617
220.70000	-0.23981
220.80000	-0.31108
220.90000	-0.37931
221.00000	-0.44390
221.10000	-0.50426
221.20000	-0.55985
221.30000	-0.61017
221.40000	-0.65476
221.50000	-0.69324
221.60000	-0.72525
221.70000	-0.75052
221.80000	-0.76882
221.90000	-0.77999
222.00000	-0.78394
222.10000	-0.78065
222.20000	-0.77013
222.30000	-0.75251
222.40000	-0.72793
222.50000	-0.69664
222.60000	-0.65891
222.70000	-0.61509
222.80000	-0.56559
222.90000	-0.51084
223.00000	-0.45135
223.10000	-0.38765
223.20000	-0.32032
223.30000	-0.24996
223.40000	-0.17721
223.50000	-0.10272
223.60000	-0.02716
223.70000	0.04880
223.80000	0.12447
223.90000	0.19919
224.00000	0.27229
224.10000	0.34311
224.20000	0.41104
224.30000	0.47547
224.40000	0.53583
224.50000	0.59160
224.60000	0.64228
224.70000	0.68744
224.80000	0.72669
224.90000	0.75969
225.00000	0.78617
225.10000	0.80590
225.20000	0.81872
225.30000	0.82455
225.40000	0.82334
225.50000	0.81513
225.60000	0.80002
225.70000	0.77815
225.80000	0.74974
225.90000	0.71508
226.00000	0.67448
226.10000	0.62832
226.20000	0.57706
226.30000	0.52114
226.40000	0.46111
226.50000	0.39750
226.60000	0.33091
226.70000	0.26194
226.80000	0.19122
226.90000	0.11941
227.00000	0.04714
227.10000	-0.02491
227.20000	-0.09610
227.30000	-0.16579
227.40000	-0.23334
227.50000	-0.29816
227.60000	-0.35964
227.70000	-0.41725
227.80000	-0.47047
227.90000	-0.51883
228.00000	-0.56189
228.10000	-0.59928
228.20000	-0.63066
228.30000	-0.65577
228.40000	-0.67439
228.50000	-0.68635
228.60000	-0.69157
228.70000	-0.69000
228.80000	-0.68168
228.90000	-0.66668
229.00000	-0.64516
229.10000	-0.61731
229.20000	-0.58340
229.30000	-0.54374
229.40000	-0.49870
229.50000	-0.44869
229.60000	-0.39417
229.70000	-0.33563
229.80000	-0.27362
229.90000	-0.20869
230.00000	-0.14144
230.10000	-0.07246
230.20000	-0.00239
230.30000	0.06815
230.40000	0.13852
230.50000	0.20809
230.60000	0.27623
230.70000	0.34233
230.80000	0.40581
230.90000	0.46609
231.00000	0.52265
231.10000	0.57498
231.20000	0.62261
231.30000	0.66514
231.40000	0.70217
231.50000	0.73341
231.60000	0.75856
231.70000	0.77742
231.80000	0.78983
231.90000	0.79569
232.00000	0.79496
232.10000	0.78766
232.20000	0.77387
232.30000	0.75372
232.40000	0.72740
232.50000	0.69516
232.60000	0.65730
232.70000	0.61418
232.80000	0.56618
232.90000	0.51375
233.00000	0.45736
233.10000	0.39753
233.20000	0.33481
233.30000	0.26975
233.40000	0.20296
233.50000	0.13502
233.60000	0.06655
233.70000	-0.00182
233.80000	-0.06950
233.90000	-0.13587
234.00000	-0.20035
234.10000	-0.26235
234.20000	-0.32132
234.30000	-0.37675
234.40000	-0.42815
234.50000	-0.47505
234.60000	-0.51706
234.70000	-0.55381
234.80000	-0.58497
234.90000	-0.61028
235.00000	-0.62954
235.10000	-0.64258
235.20000	-0.64929
235.30000	-0.64964
235.40000	-0.64365
235.50000	-0.63137
235.60000	-0.61294
235.70000	-0.58853
235.80000	-0.55840
235.90000	-0.52281
236.00000	-0.48211
236.10000	-0.43668
236.20000	-0.38694
236.30000	-0.33336
236.40000	-0.27642
236.50000	-0.21665
236.60000	-0.15461
236.70000	-0.09085
236.80000	-0.02597
236.90000	0.03944
237.00000	0.10480
237.10000	0.16950
237.20000	0.23295
237.30000	0.29459
237.40000	0.35385
237.50000	0.41020
237.60000	0.46313
237.70000	0.51217
237.80000	0.55687
237.90000	0.59684
238.00000	0.63171
238.10000	0.66118
238.20000	0.68499
238.30000	0.70292
238.40000	0.71483
238.50000	0.72060
238.60000	0.72020
238.70000	0.71363
238.80000	0.70096
238.90000	0.68230
239.00000	0.65784
239.10000	0.62778
239.20000	0.59242
239.30000	0.55207
239.40000	0.50710
239.50000	0.45791
239.60000	0.40495
239.70000	0.34869
239.80000	0.28965
239.90000	0.22834
240.00000	0.16533
240.10000	0.10117
240.20000	0.03644
240.30000	-0.02829
240.40000	-0.09244
240.50000	-0.15544
240.60000	-0.21674
240.70000	-0.27579
240.80000	-0.33207
240.90000	-0.38509
241.00000	-0.43439
241.10000	-0.47954
241.20000	-0.52014
241.30000	-0.55586
241.40000	-0.58638
241.50000	-0.61144
241.60000	-0.63085
241.70000	-0.64444
241.80000	-0.65212
241.90000	-0.65383
242.00000	-0.64958
242.10000	-0.63942
242.20000	-0.62347
242.30000	-0.60189
242.40000	-0.57490
242.50000	-0.54275
242.60000	-0.50575
242.70000	-0.46426
242.80000	-0.41866
242.90000	-0.36938
243.00000	-0.31688
243.10000	-0.26164
243.20000	-0.20418
243.30000	-0.14503
243.40000	-0.08472
243.50000	-0.02382
243.60000	0.03713
243.70000	0.09756
243.80000	0.15692
243.90000	0.21467
244.00000	0.27029
244.10000	0.32327
244.20000	0.37314
244.30000	0.41944
244.40000	0.46176
244.50000	0.49971
244.60000	0.53295
244.70000	0.56119
244.80000	0.58417
244.90000	0.60170
245.00000	0.61361
245.10000	0.61980
245.20000	0.62022
245.30000	0.61487
245.40000	0.60380
245.50000	0.58711
245.60000	0.56497
245.70000	0.53756
245.80000	0.50514
245.90000	0.46801
246.00000	0.42650
246.10000	0.38099
246.20000	0.33188
246.30000	0.27962
246.40000	0.22467
246.50000	0.16753
246.60000	0.10872
246.70000	0.04875
246.80000	-0.01184
246.90000	-0.07250
247.00000	-0.13271
247.10000	-0.19192
247.20000	-0.24960
247.30000	-0.30526
247.40000	-0.35839
247.50000	-0.40854
247.60000	-0.45526
247.70000	-0.49814
247.80000	-0.53682
247.90000	-0.57095
248.00000	-0.60025
248.10000	-0.62446
248.20000	-0.64339
248.30000	-0.65689
248.40000	-0.66484
248.50000	-0.66719
248.60000	-0.66393
248.70000	-0.65512
248.80000	-0.64085
248.90000	-0.62126
249.00000	-0.59655
249.10000	-0.56695
249.20000	-0.53274
249.30000	-0.49425
249.40000	-0.45183
249.50000	-0.40589
249.60000	-0.35684
249.70000	-0.30514
249.80000	-0.25126
249.90000	-0.19570
250.00000	-0.13897
250.10000	-0.08158
250.20000	-0.02405
250.30000	0.03308
250.40000	0.08931
250.50000	0.14411
250.60000	0.19701
250.70000	0.24752
250.80000	0.29519
250.90000	0.33958
251.00000	0.38031
251.10000	0.41701
251.20000	0.44935
251.30000	0.47704
251.40000	0.49985
251.50000	0.51758
251.60000	0.53006
251.70000	0.53721
251.80000	0.53895
251.90000	0.53528
252.00000	0.52625
252.10000	0.51194
252.20000	0.49249
252.30000	0.46809
252.40000	0.43895
252.50000	0.40535
252.60000	0.36760
252.70000	0.32604
252.80000	0.28106
252.90000	0.23306
253.00000	0.18249
253.10000	0.12979
253.20000	0.07545
253.30000	0.01997
253.40000	-0.03617
253.50000	-0.09246
253.60000	-0.14838
253.70000	-0.20344
253.80000	-0.25714
253.90000	-0.30901
254.00000	-0.35857
254.10000	-0.40540
254.20000	-0.44906
254.30000	-0.48918
254.40000	-0.52541
254.50000	-0.55742
254.60000	-0.58493
254.70000	-0.60771
254.80000	-0.62555
254.90000	-0.63832
255.00000	-0.64589
255.10000	-0.64823
255.20000	-0.64530
255.30000	-0.63716
255.40000	-0.62388
255.50000	-0.60558
255.60000	-0.58246
255.70000	-0.55471
255.80000	-0.52260
255.90000	-0.48643
256.00000	-0.44652
256.10000	-0.40325
256.20000	-0.35699
256.30000	-0.30819
256.40000	-0.25727
256.50000	-0.20470
256.60000	-0.15095
256.70000	-0.09651
256.80000	-0.04186
256.90000	0.01250
257.00000	0.06609
257.10000	0.11843
257.20000	0.16906
257.30000	0.21752
257.40000	0.26339
257.50000	0.30626
257.60000	0.34575
257.70000	0.38152
257.80000	0.41326
257.90000	0.44069
258.00000	0.46359
258.10000	0.48174
258.20000	0.49501
258.30000	0.50329
258.40000	0.50652
258.50000	0.50468
258.60000	0.49780
258.70000	0.48596
258.80000	0.46928
258.90000	0.44792
259.00000	0.42209
259.10000	0.39204
259.20000	0.35804
259.30000	0.32043
259.40000	0.27953
259.50000	0.23575
259.60000	0.18947
259.70000	0.14113
259.80000	0.09118
259.90000	0.04006
260.00000	-0.01174
260.10000	-0.06377
260.20000	-0.11554
260.30000	-0.16659
260.40000	-0.21644
260.50000	-0.26465
260.60000	-0.31078
260.70000	-0.35441
260.80000	-0.39515
260.90000	-0.43263
261.00000	-0.46651
261.10000	-0.49649
261.20000	-0.52230
261.30000	-0.54372
261.40000	-0.56054
261.50000	-0.57262
261.60000	-0.57985
261.70000	-0.58218
261.80000	-0.57958
261.90000	-0.57208
262.00000	-0.55975
262.10000	-0.54270
262.20000	-0.52109
262.30000	-0.49512
262.40000	-0.46502
262.50000	-0.43107
262.60000	-0.39356
262.70000	-0.35284
262.80000	-0.30928
262.90000	-0.26325
263.00000	-0.21519
263.10000	-0.16551
263.20000	-0.11465
263.30000	-0.06308
263.40000	-0.01125
263.50000	0.04038
263.60000	0.09135
263.70000	0.14122
263.80000	0.18954
263.90000	0.23588
264.00000	0.27985
264.10000	0.32106
264.20000	0.35915
264.30000	0.39378
264.40000	0.42468
264.50000	0.45156
264.60000	0.47421
264.70000	0.49243
264.80000	0.50608
264.90000	0.51506
265.00000	0.51930
265.10000	0.51877
265.20000	0.51351
265.30000	0.50357
265.40000	0.48907
265.50000	0.47015
265.60000	0.44699
265.70000	0.41983
265.80000	0.38891
265.90000	0.35455
266.00000	0.31705
266.10000	0.27678
266.20000	0.23411
266.30000	0.18943
266.40000	0.14316
266.50000	0.09573
266.60000	0.04757
266.70000	-0.00086
266.80000	-0.04914
266.90000	-0.09681
267.00000	-0.14344
267.10000	-0.18861
267.20000	-0.23190
267.30000	-0.27291
267.40000	-0.31128
267.50000	-0.34666
267.60000	-0.37872
267.70000	-0.40718
267.80000	-0.43179
267.90000	-0.45231
268.00000	-0.46856
268.10000	-0.48041
268.20000	-0.48774
268.30000	-0.49049
268.40000	-0.48863
268.50000	-0.48219
268.60000	-0.47122
268.70000	-0.45582
268.80000	-0.43614
268.90000	-0.41236
269.00000	-0.38468
269.10000	-0.35335
269.20000	-0.31867
269.30000	-0.28093
269.40000	-0.24048
269.50000	-0.19769
269.60000	-0.15292
269.70000	-0.10660
269.80000	-0.05911
269.90000	-0.01090
270.00000	0.03762
270.10000	0.08600
270.20000	0.13383
270.30000	0.18068
270.40000	0.22614
270.50000	0.26980
270.60000	0.31129
270.70000	0.35024
270.80000	0.38631
270.90000	0.41918
271.00000	0.44859
271.10000	0.47427
271.20000	0.49600
271.30000	0.51361
271.40000	0.52695
271.50000	0.53592
271.60000	0.54044
271.70000	0.54050
271.80000	0.53610
271.90000	0.52730
272.00000	0.51420
272.10000	0.49692
272.20000	0.47564
272.30000	0.45056
272.40000	0.42191
272.50000	0.38997
272.60000	0.35504
272.70000	0.31744
272.80000	0.27752
272.90000	0.23565
273.00000	0.19221
273.10000	0.14761
273.20000	0.10225
273.30000	0.05655
273.40000	0.01091
273.50000	-0.03423
273.60000	-0.07848
273.70000	-0.12143
273.80000	-0.16269
273.90000	-0.20189
274.00000	-0.23869
274.10000	-0.27274
274.20000	-0.30374
274.30000	-0.33142
274.40000	-0.35554
274.50000	-0.37586
274.60000	-0.39223
274.70000	-0.40449
274.80000	-0.41254
274.90000	-0.41632
275.00000	-0.41578
275.10000	-0.41096
275.20000	-0.40188
275.30000	-0.38865
275.40000	-0.37138
275.50000	-0.35024
275.60000	-0.32542
275.70000	-0.29716
275.80000	-0.26570
275.90000	-0.23134
276.00000	-0.19439
276.10000	-0.15519
276.20000	-0.11409
276.30000	-0.07147
276.40000	-0.02770
276.50000	0.01681
276.60000	0.06166
276.70000	0.10645
276.80000	0.15078
276.90000	0.19424
277.00000	0.23646
277.10000	0.27705
277.20000	0.31566
277.30000	0.35193
277.40000	0.38555
277.50000	0.41622
277.60000	0.44366
277.70000	0.46765
277.80000	0.48796
277.90000	0.50443
278.00000	0.51690
278.10000	0.52529
278.20000	0.52951
278.30000	0.52954
278.40000	0.52539
278.50000	0.51710
278.60000	0.50475
278.70000	0.48846
278.80000	0.46838
278.90000	0.44471
279.00000	0.41765
279.10000	0.38747
279.20000	0.35443
279.30000	0.31883
279.40000	0.28100
279.50000	0.24129
279.60000	0.20005
279.70000	0.15765
279.80000	0.11448
279.90000	0.07093
280.00000	0.02738
280.10000	-0.01578
280.20000	-0.05816
280.30000	-0.09938
280.40000	-0.13908
280.50000	-0.17690
280.60000	-0.21251
280.70000	-0.24561
280.80000	-0.27589
280.90000	-0.30309
281.00000	-0.32699
281.10000	-0.34737
281.20000	-0.36406
281.30000	-0.37693
281.40000	-0.38586
281.50000	-0.39079
281.60000	-0.39169
281.70000	-0.38856
281.80000	-0.38144
281.90000	-0.37041
282.00000	-0.35558
282.10000	-0.33710
282.20000	-0.31513
282.30000	-0.28990
282.40000	-0.26164
282.50000	-0.23062
282.60000	-0.19712
282.70000	-0.16146
282.80000	-0.12396
282.90000	-0.08498
283.00000	-0.04487
283.10000	-0.00400
283.20000	0.03725
283.30000	0.07851
283.40000	0.11939
283.50000	0.15954
283.60000	0.19857
283.70000	0.23614
283.80000	0.27191
283.90000	0.30554
284.00000	0.33674
284.10000	0.36522
284.20000	0.39073
284.30000	0.41304
284.40000	0.43194
284.50000	0.44726
284.60000	0.45888
284.70000	0.46668
284.80000	0.47059
284.90000	0.47059
285.00000	0.46666
285.10000	0.45886
285.20000	0.44724
285.30000	0.43192
285.40000	0.41303
285.50000	0.39074
285.60000	0.36526
285.70000	0.33680
285.80000	0.30564
285.90000	0.27203
286.00000	0.23629
286.10000	0.19874
286.20000	0.15970
286.30000	0.11953
286.40000	0.07858
286.50000	0.03721
286.60000	-0.00421
286.70000	-0.04532
286.80000	-0.08574
286.90000	-0.12514
287.00000	-0.16315
287.10000	-0.19946
287.20000	-0.23374
287.30000	-0.26570
287.40000	-0.29506
287.50000	-0.32158
287.60000	-0.34501
287.70000	-0.36518
287.80000	-0.38190
287.90000	-0.39505
288.00000	-0.40451
288.10000	-0.41023
288.20000	-0.41217
288.30000	-0.41031
288.40000	-0.40470
288.50000	-0.39540
288.60000	-0.38250
288.70000	-0.36615
288.80000	-0.34650
288.90000	-0.32374
289.00000	-0.29809
289.10000	-0.26980
289.20000	-0.23914
289.30000	-0.20638
289.40000	-0.17185
289.50000	-0.13586
289.60000	-0.09875
289.70000	-0.06086
289.80000	-0.02255
289.90000	0.01584
290.00000	0.05395
290.10000	0.09143
290.20000	0.12793
290.30000	0.16313
290.40000	0.19669
290.50000	0.22831
290.60000	0.25770
290.70000	0.28460
290.80000	0.30875
290.90000	0.32994
291.00000	0.34798
291.10000	0.36271
291.20000	0.37398
291.30000	0.38169
291.40000	0.38578
291.50000	0.38621
291.60000	0.38298
291.70000	0.37611
291.80000	0.36566
291.90000	0.35174
292.00000	0.33445
292.10000	0.31397
292.20000	0.29046
292.30000	0.26415
292.40000	0.23527
292.50000	0.20407
292.60000	0.17083
292.70000	0.13586
292.80000	0.09945
292.90000	0.06194
293.00000	0.02366
293.10000	-0.01506
293.20000	-0.05386
293.30000	-0.09242
293.40000	-0.13038
293.50000	-0.16741
293.60000	-0.20320
293.70000	-0.23742
293.80000	-0.26978
293.90000	-0.29999
294.00000	-0.32780
294.10000	-0.35297
294.20000	-0.37527
294.30000	-0.39453
294.40000	-0.41058
294.50000	-0.42328
294.60000	-0.43255
294.70000	-0.43829
294.80000	-0.44049
294.90000	-0.43913
295.00000	-0.43423
295.10000	-0.42585
295.20000	-0.41408
295.30000	-0.39904
295.40000	-0.38088
295.50000	-0.35977
295.60000	-0.33590
295.70000	-0.30952
295.80000	-0.28086
295.90000	-0.25019
296.00000	-0.21779
296.10000	-0.18397
296.20000	-0.14904
296.30000	-0.11333
296.40000	-0.07714
296.50000	-0.04083
296.60000	-0.00471
296.70000	0.03087
296.80000	0.06561
296.90000	0.09917
297.00000	0.13127
297.10000	0.16160
297.20000	0.18990
297.30000	0.21591
297.40000	0.23940
297.50000	0.26016
297.60000	0.27800
297.70000	0.29276
297.80000	0.30432
297.90000	0.31257
298.00000	0.31745
298.10000	0.31890
298.20000	0.31694
298.30000	0.31156
298.40000	0.30284
298.50000	0.29085
298.60000	0.27569
298.70000	0.25753
298.80000	0.23651
298.90000	0.21283
299.00000	0.18672
299.10000	0.15840
299.20000	0.12813
299.30000	0.09620
299.40000	0.06288
299.50000	0.02848
299.60000	-0.00669
299.70000	-0.04231
299.80000	-0.07806
299.90000	-0.11363
300.00000	-0.14868
300.10000	-0.18292
300.20000	-0.21603
300.30000	-0.24771
300.40000	-0.27770
300.50000	-0.30571
300.60000	-0.33150
300.70000	-0.35484
300.80000	-0.37553
300.90000	-0.39339
301.00000	-0.40827
301.10000	-0.42002
301.20000	-0.42856
301.30000	-0.43380
301.40000	-0.43572
301.50000	-0.43430
301.60000	-0.42956
301.70000	-0.42154
301.80000	-0.41032
301.90000	-0.39602
302.00000	-0.37875
302.10000	-0.35869
302.20000	-0.33602
302.30000	-0.31094
302.40000	-0.28369
302.50000	-0.25451
302.60000	-0.22366
302.70000	-0.19143
302.80000	-0.15811
302.90000	-0.12399
303.00000	-0.08938
303.10000	-0.05460
303.20000	-0.01995
303.30000	0.01425
303.40000	0.04771
303.50000	0.08012
303.60000	0.11120
303.70000	0.14068
303.80000	0.16829
303.90000	0.19379
304.00000	0.21696
304.10000	0.23761
304.20000	0.25554
304.30000	0.27062
304.40000	0.28271
304.50000	0.29171
304.60000	0.29756
304.70000	0.30021
304.80000	0.29965
304.90000	0.29588
305.00000	0.28897
305.10000	0.27898
305.20000	0.26601
305.30000	0.25018
305.40000	0.23166
305.50000	0.21061
305.60000	0.18724
305.70000	0.16177
305.80000	0.13444
305.90000	0.10549
306.00000	0.07521
306.10000	0.04386
306.20000	0.01175
306.30000	-0.02084
306.40000	-0.05361
306.50000	-0.08625
306.60000	-0.11846
306.70000	-0.14995
306.80000	-0.18043
306.90000	-0.20962
307.00000	-0.23726
307.10000	-0.26310
307.20000	-0.28690
307.30000	-0.30843
307.40000	-0.32752
307.50000	-0.34398
307.60000	-0.35767
307.70000	-0.36845
307.80000	-0.37624
307.90000	-0.38096
308.00000	-0.38258
308.10000	-0.38106
308.20000	-0.37643
308.30000	-0.36874
308.40000	-0.35804
308.50000	-0.34443
308.60000	-0.32803
308.70000	-0.30900
308.80000	-0.28750
308.90000	-0.26371
309.00000	-0.23786
309.10000	-0.21017
309.20000	-0.18089
309.30000	-0.15027
309.40000	-0.11860
309.50000	-0.08614
309.60000	-0.05318
309.70000	-0.02002
309.80000	0.01306
309.90000	0.04576
310.00000	0.07780
310.10000	0.10889
310.20000	0.13878
310.30000	0.16719
310.40000	0.19389
310.50000	0.21864
310.60000	0.24124
310.70000	0.26149
310.80000	0.27922
310.90000	0.29428
311.00000	0.30656
311.10000	0.31595
311.20000	0.32239
311.30000	0.32583
311.40000	0.32625
311.50000	0.32366
311.60000	0.31811
311.70000	0.30964
311.80000	0.29837
311.90000	0.28439
312.00000	0.26784
312.10000	0.24890
312.20000	0.22774
312.30000	0.20457
312.40000	0.17960
312.50000	0.15308
312.60000	0.12524
312.70000	0.09637
312.80000	0.06671
312.90000	0.03655
313.00000	0.00618
313.10000	-0.02413
313.20000	-0.05410
313.30000	-0.08345
313.40000	-0.11191
313.50000	-0.13921
313.60000	-0.16511
313.70000	-0.18937
313.80000	-0.21176
313.90000	-0.23207
314.00000	-0.25013
314.10000	-0.26576
314.20000	-0.27883
314.30000	-0.28920
314.40000	-0.29679
314.50000	-0.30152
314.60000	-0.30335
314.70000	-0.30227
314.80000	-0.29827
314.90000	-0.29140
315.00000	-0.28170
315.10000	-0.26928
315.20000	-0.25424
315.30000	-0.23671
315.40000	-0.21684
315.50000	-0.19482
315.60000	-0.17084
315.70000	-0.14510
315.80000	-0.11785
315.90000	-0.08932
316.00000	-0.05975
316.10000	-0.02943
316.20000	0.00140
316.30000	0.03245
316.40000	0.06346
316.50000	0.09414
316.60000	0.12424
316.70000	0.15349
316.80000	0.18164
316.90000	0.20843
317.00000	0.23364
317.10000	0.25705
317.20000	0.27845
317.30000	0.29768
317.40000	0.31456
317.50000	0.32895
317.60000	0.34073
317.70000	0.34982
317.80000	0.35613
317.90000	0.35963
318.00000	0.36029
318.10000	0.35811
318.20000	0.35314
318.30000	0.34543
318.40000	0.33505
318.50000	0.32211
318.60000	0.30673
318.70000	0.28907
318.80000	0.26930
318.90000	0.24760
319.00000	0.22417
319.10000	0.19924
319.20000	0.17303
319.30000	0.14580
319.40000	0.11779
319.50000	0.08926
319.60000	0.06047
319.70000	0.03169
319.80000	0.00317
319.90000	-0.02481
320.00000	-0.05200
320.10000	-0.07816
320.20000	-0.10305
320.30000	-0.12644
320.40000	-0.14813
320.50000	-0.16791
320.60000	-0.18562
320.70000	-0.20108
320.80000	-0.21417
320.90000	-0.22476
321.00000	-0.23276
321.10000	-0.23811
321.20000	-0.24075
321.30000	-0.24067
321.40000	-0.23786
321.50000	-0.23237
321.60000	-0.22423
321.70000	-0.21352
321.80000	-0.20035
321.90000	-0.18484
322.00000	-0.16712
322.10000	-0.14737
322.20000	-0.12575
322.30000	-0.10247
322.40000	-0.07773
322.50000	-0.05177
322.60000	-0.02481
322.70000	0.00290
322.80000	0.03112
322.90000	0.05958
323.00000	0.08803
323.10000	0.11622
323.20000	0.14389
323.30000	0.17080
323.40000	0.19671
323.50000	0.22139
323.60000	0.24461
323.70000	0.26617
323.80000	0.28588
323.90000	0.30357
324.00000	0.31908
324.10000	0.33228
324.20000	0.34305
324.30000	0.35130
324.40000	0.35696
324.50000	0.35998
324.60000	0.36034
324.70000	0.35804
324.80000	0.35311
324.90000	0.34560
325.00000	0.33557
325.10000	0.32313
325.20000	0.30838
325.30000	0.29146
325.40000	0.27253
325.50000	0.25176
325.60000	0.22934
325.70000	0.20547
325.80000	0.18037
325.90000	0.15426
326.00000	0.12739
326.10000	0.09998
326.20000	0.07229
326.30000	0.04456
326.40000	0.01705
326.50000	-0.01002
326.60000	-0.03638
326.70000	-0.06182
326.80000	-0.08611
326.90000	-0.10903
327.00000	-0.13039
327.10000	-0.14999
327.20000	-0.16767
327.30000	-0.18327
327.40000	-0.19667
327.50000	-0.20775
327.60000	-0.21642
327.70000	-0.22261
327.80000	-0.22627
327.90000	-0.22738
328.00000	-0.22594
328.10000	-0.22197
328.20000	-0.21551
328.30000	-0.20664
328.40000	-0.19544
328.50000	-0.18201
328.60000	-0.16650
328.70000	-0.14905
328.80000	-0.12983
328.90000	-0.10901
329.00000	-0.08680
329.10000	-0.06340
329.20000	-0.03902
329.30000	-0.01391
329.40000	0.01172
329.50000	0.03763
329.60000	0.06356
329.70000	0.08930
329.80000	0.11459
329.90000	0.13920
330.00000	0.16292
330.10000	0.18552
330.20000	0.20679
330.30000	0.22654
330.40000	0.24459
330.50000	0.26077
330.60000	0.27494
330.70000	0.28696
330.80000	0.29673
330.90000	0.30415
331.00000	0.30916
331.10000	0.31170
331.20000	0.31176
331.30000	0.30933
331.40000	0.30444
331.50000	0.29711
331.60000	0.28743
331.70000	0.27547
331.80000	0.26133
331.90000	0.24515
332.00000	0.22706
332.10000	0.20723
332.20000	0.18583
332.30000	0.16304
332.40000	0.13908
332.50000	0.11414
332.60000	0.08845
332.70000	0.06224
332.80000	0.03573
332.90000	0.00916
333.00000	-0.01725
333.10000	-0.04326
333.20000	-0.06864
333.30000	-0.09318
333.40000	-0.11667
333.50000	-0.13890
333.60000	-0.15969
333.70000	-0.17885
333.80000	-0.19623
333.90000	-0.21167
334.00000	-0.22507
334.10000	-0.23629
334.20000	-0.24526
334.30000	-0.25191
334.40000	-0.25619
334.50000	-0.25807
334.60000	-0.25755
334.70000	-0.25465
334.80000	-0.24940
334.90000	-0.24187
335.00000	-0.23214
335.10000	-0.22030
335.20000	-0.20648
335.30000	-0.19080
335.40000	-0.17343
335.50000	-0.15454
335.60000	-0.13429
335.70000	-0.11289
335.80000	-0.09054
335.90000	-0.06745
336.00000	-0.04384
336.10000	-0.01992
336.20000	0.00407
336.30000	0.02792
336.40000	0.05139
336.50000	0.07428
336.60000	0.09637
336.70000	0.11746
336.80000	0.13734
336.90000	0.15583
337.00000	0.17277
337.10000	0.18800
337.20000	0.20137
337.30000	0.21275
337.40000	0.22205
337.50000	0.22918
337.60000	0.23406
337.70000	0.23666
337.80000	0.23693
337.90000	0.23489
338.00000	0.23054
338.10000	0.22392
338.20000	0.21509
338.30000	0.20412
338.40000	0.19111
338.50000	0.17617
338.60000	0.15943
338.70000	0.14105
338.80000	0.12117
338.90000	0.09998
339.00000	0.07767
339.10000	0.05442
339.20000	0.03044
339.30000	0.00595
339.40000	-0.01884
339.50000	-0.04373
339.60000	-0.06848
339.70000	-0.09288
339.80000	-0.11672
339.90000	-0.13980
340.00000	-0.16191
340.10000	-0.18286
340.20000	-0.20247
340.30000	-0.22058
340.40000	-0.23704
340.50000	-0.25169
340.60000	-0.26443
340.70000	-0.27514
340.80000	-0.28374
340.90000	-0.29017
341.00000	-0.29436
341.10000	-0.29631
341.20000	-0.29600
341.30000	-0.29343
341.40000	-0.28866
341.50000	-0.28172
341.60000	-0.27269
341.70000	-0.26167
341.80000	-0.24876
341.90000	-0.23408
342.00000	-0.21777
342.10000	-0.20000
342.20000	-0.18093
342.30000	-0.16074
342.40000	-0.13961
342.50000	-0.11775
342.60000	-0.09535
342.70000	-0.07263
342.80000	-0.04979
342.90000	-0.02705
343.00000	-0.00461
343.10000	0.01732
343.20000	0.03854
343.30000	0.05886
343.40000	0.07809
343.50000	0.09606
343.60000	0.11260
343.70000	0.12757
343.80000	0.14082
343.90000	0.15225
344.00000	0.16174
344.10000	0.16922
344.20000	0.17461
344.30000	0.17786
344.40000	0.17896
344.50000	0.17789
344.60000	0.17467
344.70000	0.16932
344.80000	0.16189
344.90000	0.15245
345.00000	0.14110
345.10000	0.12792
345.20000	0.11305
345.30000	0.09662
345.40000	0.07877
345.50000	0.05968
345.60000	0.03950
345.70000	0.01843
345.80000	-0.00335
345.90000	-0.02563
346.00000	-0.04823
346.10000	-0.07093
346.20000	-0.09353
346.30000	-0.11584
346.40000	-0.13765
346.50000	-0.15876
346.60000	-0.17899
346.70000	-0.19816
346.80000	-0.21610
346.90000	-0.23264
347.00000	-0.24765
347.10000	-0.26099
347.20000	-0.27255
347.30000	-0.28222
347.40000	-0.28992
347.50000	-0.29558
347.60000	-0.29917
347.70000	-0.30064
347.80000	-0.29998
347.90000	-0.29722
348.00000	-0.29237
348.10000	-0.28549
348.20000	-0.27663
348.30000	-0.26588
348.40000	-0.25334
348.50000	-0.23912
348.60000	-0.22336
348.70000	-0.20620
348.80000	-0.18779
348.90000	-0.16829
349.00000	-0.14789
349.10000	-0.12677
349.20000	-0.10512
349.30000	-0.08312
349.40000	-0.06099
349.50000	-0.03891
349.60000	-0.01707
349.70000	0.00431
349.80000	0.02507
349.90000	0.04501
350.00000	0.06396
350.10000	0.08176
350.20000	0.09824
350.30000	0.11328
350.40000	0.12673
350.50000	0.13848
350.60000	0.14844
350.70000	0.15652
350.80000	0.16266
350.90000	0.16681
351.00000	0.16894
351.10000	0.16904
351.20000	0.16711
351.30000	0.16319
351.40000	0.15732
351.50000	0.14955
351.60000	0.13996
351.70000	0.12866
351.80000	0.11574
351.90000	0.10134
352.00000	0.08559
352.10000	0.06864
352.20000	0.05065
352.30000	0.03179
352.40000	0.01224
352.50000	-0.00782
352.60000	-0.02821
352.70000	-0.04873
352.80000	-0.06919
352.90000	-0.08941
353.00000	-0.10919
353.10000	-0.12836
353.20000	-0.14673
353.30000	-0.16414
353.40000	-0.18042
353.50000	-0.19543
353.60000	-0.20902
353.70000	-0.22108
353.80000	-0.23148
353.90000	-0.24013
354.00000	-0.24696
354.10000	-0.25189
354.20000	-0.25488
354.30000	-0.25590
354.40000	-0.25493
354.50000	-0.25199
354.60000	-0.24710
354.70000	-0.24029
354.80000	-0.23163
354.90000	-0.22119
355.00000	-0.20906
355.10000	-0.19535
355.20000	-0.18017
355.30000	-0.16366
355.40000	-0.14597
355.50000	-0.12724
355.60000	-0.10764
355.70000	-0.08734
355.80000	-0.06652
355.90000	-0.04536
356.00000	-0.02404
356.10000	-0.00274
356.20000	0.01834
356.30000	0.03903
356.40000	0.05914
356.50000	0.07852
356.60000	0.09698
356.70000	0.11438
356.80000	0.13056
356.90000	0.14540
357.00000	0.15877
357.10000	0.17056
357.20000	0.18067
357.30000	0.18902
357.40000	0.19555
357.50000	0.20022
357.60000	0.20299
357.70000	0.20385
357.80000	0.20280
357.90000	0.19987
358.00000	0.19508
358.10000	0.18851
358.20000	0.18021
358.30000	0.17028
358.40000	0.15882
358.50000	0.14593
358.60000	0.13175
358.70000	0.11641
358.80000	0.10007
358.90000	0.08287
359.00000	0.06499
359.10000	0.04660
359.20000	0.02786
359.30000	0.00896
359.40000	-0.00992
359.50000	-0.02861
359.60000	-0.04693
359.70000	-0.06471
359.80000	-0.08178
359.90000	-0.09798
360.00000	-0.11316
360.10000	-0.12717
360.20000	-0.13990
360.30000	-0.15120
360.40000	-0.16099
360.50000	-0.16916
360.60000	-0.17564
360.70000	-0.18036
360.80000	-0.18328
360.90000	-0.18436
361.00000	-0.18361
361.10000	-0.18100
361.20000	-0.17658
361.30000	-0.17036
361.40000	-0.16241
361.50000	-0.15279
361.60000	-0.14158
361.70000	-0.12889
361.80000	-0.11481
361.90000	-0.09948
362.00000	-0.08303
362.10000	-0.06559
362.20000	-0.04732
362.30000	-0.02839
362.40000	-0.00894
362.50000	0.01083
362.60000	0.03078
362.70000	0.05071
362.80000	0.07047
362.90000	0.08987
363.00000	0.10875
363.10000	0.12695
363.20000	0.14431
363.30000	0.16069
363.40000	0.17595
363.50000	0.18995
363.60000	0.20258
363.70000	0.21373
363.80000	0.22332
363.90000	0.23126
364.00000	0.23750
364.10000	0.24199
364.20000	0.24469
364.30000	0.24559
364.40000	0.24469
364.50000	0.24202
364.60000	0.23760
364.70000	0.23147
364.80000	0.22372
364.90000	0.21441
365.00000	0.20363
365.10000	0.19150
365.20000	0.17812
365.30000	0.16363
365.40000	0.14816
365.50000	0.13186
365.60000	0.11489
365.70000	0.09739
365.80000	0.07954
365.90000	0.06151
366.00000	0.04345
366.10000	0.02553
366.20000	0.00793
366.30000	-0.00921
366.40000	-0.02571
366.50000	-0.04143
366.60000	-0.05623
366.70000	-0.06997
366.80000	-0.08252
366.90000	-0.09377
367.00000	-0.10362
367.10000	-0.11198
367.20000	-0.11877
367.30000	-0.12393
367.40000	-0.12742
367.50000	-0.12921
367.60000	-0.12927
367.70000	-0.12761
367.80000	-0.12425
367.90000	-0.11921
368.00000	-0.11254
368.10000	-0.10431
368.20000	-0.09458
368.30000	-0.08345
368.40000	-0.07102
368.50000	-0.05740
368.60000	-0.04270
368.70000	-0.02708
368.80000	-0.01066
368.90000	0.00641
369.00000	0.02396
369.10000	0.04186
369.20000	0.05992
369.30000	0.07800
369.40000	0.09593
369.50000	0.11355
369.60000	0.13070
369.70000	0.14723
369.80000	0.16299
369.90000	0.17785
370.00000	0.19166
370.10000	0.20432
370.20000	0.21570
370.30000	0.22571
370.40000	0.23426
370.50000	0.24128
370.60000	0.24670
370.70000	0.25048
370.80000	0.25259
370.90000	0.25300
371.00000	0.25173
371.10000	0.24879
371.20000	0.24419
371.30000	0.23799
371.40000	0.23025
371.50000	0.22103
371.60000	0.21042
371.70000	0.19852
371.80000	0.18543
371.90000	0.17128
372.00000	0.15619
372.10000	0.14029
372.20000	0.12374
372.30000	0.10667
372.40000	0.08924
372.50000	0.07161
372.60000	0.05393
372.70000	0.03636
372.80000	0.01905
372.90000	0.00216
373.00000	-0.01416
373.10000	-0.02978
373.20000	-0.04456
373.30000	-0.05836
373.40000	-0.07107
373.50000	-0.08258
373.60000	-0.09279
373.70000	-0.10162
373.80000	-0.10899
373.90000	-0.11485
374.00000	-0.11914
374.10000	-0.12184
374.20000	-0.12293
374.30000	-0.12241
374.40000	-0.12028
374.50000	-0.11658
374.60000	-0.11135
374.70000	-0.10463
374.80000	-0.09651
374.90000	-0.08705
375.00000	-0.07636
375.10000	-0.06453
375.20000	-0.05169
375.30000	-0.03794
375.40000	-0.02343
375.50000	-0.00828
375.60000	0.00735
375.70000	0.02332
375.80000	0.03947
375.90000	0.05567
376.00000	0.07176
376.10000	0.08758
376.20000	0.10299
376.30000	0.11785
376.40000	0.13201
376.50000	0.14535
376.60000	0.15774
376.70000	0.16906
376.80000	0.17921
376.90000	0.18809
377.00000	0.19562
377.10000	0.20173
377.20000	0.20636
377.30000	0.20947
377.40000	0.21101
377.50000	0.21098
377.60000	0.20937
377.70000	0.20619
377.80000	0.20147
377.90000	0.19525
378.00000	0.18757
378.10000	0.17850
378.20000	0.16813
378.30000	0.15653
378.40000	0.14382
378.50000	0.13009
378.60000	0.11546
378.70000	0.10007
378.80000	0.08405
378.90000	0.06752
379.00000	0.05065
379.10000	0.03356
379.20000	0.01641
379.30000	-0.00066
379.40000	-0.01749
379.50000	-0.03395
379.60000	-0.04990
379.70000	-0.06520
379.80000	-0.07972
379.90000	-0.09334
380.00000	-0.10595
380.10000	-0.11745
380.20000	-0.12773
380.30000	-0.13673
380.40000	-0.14436
380.50000	-0.15057
380.60000	-0.15532
380.70000	-0.15857
380.80000	-0.16031
380.90000	-0.16052
381.00000	-0.15922
381.10000	-0.15644
381.20000	-0.15220
381.30000	-0.14656
381.40000	-0.13957
381.50000	-0.13132
381.60000	-0.12188
381.70000	-0.11136
381.80000	-0.09985
381.90000	-0.08747
382.00000	-0.07435
382.10000	-0.06060
382.20000	-0.04637
382.30000	-0.03178
382.40000	-0.01699
382.50000	-0.00212
382.60000	0.01267
382.70000	0.02725
382.80000	0.04147
382.90000	0.05521
383.00000	0.06832
383.10000	0.08070
383.20000	0.09221
383.30000	0.10274
383.40000	0.11221
383.50000	0.12051
383.60000	0.12757
383.70000	0.13332
383.80000	0.13770
383.90000	0.14066
384.00000	0.14218
384.10000	0.14223
384.20000	0.14081
384.30000	0.13793
384.40000	0.13362
384.50000	0.12789
384.60000	0.12081
384.70000	0.11243
384.80000	0.10281
384.90000	0.09205
385.00000	0.08024
385.10000	0.06747
385.20000	0.05385
385.30000	0.03951
385.40000	0.02456
385.50000	0.00914
385.60000	-0.00663
385.70000	-0.02260
385.80000	-0.03865
385.90000	-0.05462
386.00000	-0.07039
386.10000	-0.08583
386.20000	-0.10079
386.30000	-0.11515
386.40000	-0.12879
386.50000	-0.14160
386.60000	-0.15346
386.70000	-0.16429
386.80000	-0.17398
386.90000	-0.18247
387.00000	-0.18968
387.10000	-0.19556
387.20000	-0.20006
387.30000	-0.20315
387.40000	-0.20481
387.50000	-0.20504
387.60000	-0.20384
387.70000	-0.20124
387.80000	-0.19726
387.90000	-0.19194
388.00000	-0.18535
388.10000	-0.17755
388.20000	-0.16861
388.30000	-0.15864
388.40000	-0.14771
388.50000	-0.13595
388.60000	-0.12346
388.70000	-0.11035
388.80000	-0.09676
388.90000	-0.08281
389.00000	-0.06864
389.10000	-0.05437
389.20000	-0.04013
389.30000	-0.02607
389.40000	-0.01231
389.50000	0.00102
389.60000	0.01381
389.70000	0.02592
389.80000	0.03725
389.90000	0.04769
390.00000	0.05716
390.10000	0.06556
390.20000	0.07281
390.30000	0.07885
390.40000	0.08362
390.50000	0.08708
390.60000	0.08921
390.70000	0.08997
390.80000	0.08936
390.90000	0.08739
391.00000	0.08407
391.10000	0.07944
391.20000	0.07354
391.30000	0.06641
391.40000	0.05813
391.50000	0.04877
391.60000	0.03842
391.70000	0.02716
391.80000	0.01509
391.90000	0.00234
392.00000	-0.01099
392.10000	-0.02478
392.20000	-0.03891
392.30000	-0.05325
392.40000	-0.06766
392.50000	-0.08203
392.60000	-0.09622
392.70000	-0.11010
392.80000	-0.12356
392.90000	-0.13647
393.00000	-0.14872
393.10000	-0.16020
393.20000	-0.17081
393.30000	-0.18045
393.40000	-0.18904
393.50000	-0.19650
393.60000	-0.20277
393.70000	-0.20780
393.80000	-0.21154
393.90000	-0.21395
394.00000	-0.21503
394.10000	-0.21476
394.20000	-0.21314
394.30000	-0.21020
394.40000	-0.20596
394.50000	-0.20046
394.60000	-0.19375
394.70000	-0.18589
394.80000	-0.17696
394.90000	-0.16703
395.00000	-0.15619
395.10000	-0.14455
395.20000	-0.13221
395.30000	-0.11927
395.40000	-0.10585
395.50000	-0.09208
395.60000	-0.07807
395.70000	-0.06395
395.80000	-0.04985
395.90000	-0.03588
396.00000	-0.02217
396.10000	-0.00885
396.20000	0.00398
396.30000	0.01620
396.40000	0.02771
396.50000	0.03840
396.60000	0.04818
396.70000	0.05698
396.80000	0.06472
396.90000	0.07133
397.00000	0.07677
397.10000	0.08098
397.20000	0.08394
397.30000	0.08563
397.40000	0.08603
397.50000	0.08515
397.60000	0.08301
397.70000	0.07964
397.80000	0.07506
397.90000	0.06933
398.00000	0.06251
398.10000	0.05466
398.20000	0.04586
398.30000	0.03620
398.40000	0.02577
398.50000	0.01468
398.60000	0.00302
398.70000	-0.00909
398.80000	-0.02153
398.90000	-0.03419
399.00000	-0.04694
399.10000	-0.05967
399.20000	-0.07226
399.30000	-0.08459
399.40000	-0.09653
399.50000	-0.10798
399.60000	-0.11884
399.70000	-0.12899
399.80000	-0.13834
399.90000	-0.14680
400.00000	-0.15430
400.10000	-0.16076
400.20000	-0.16611
400.30000	-0.17031
400.40000	-0.17331
400.50000	-0.17509
400.60000	-0.17561
400.70000	-0.17488
400.80000	-0.17289
400.90000	-0.16966
401.00000	-0.16522
401.10000	-0.15959
401.20000	-0.15283
401.30000	-0.14499
401.40000	-0.13613
401.50000	-0.12634
401.60000	-0.11569
401.70000	-0.10427
401.80000	-0.09218
401.90000	-0.07953
402.00000	-0.06642
402.10000	-0.05296
402.20000	-0.03927
402.30000	-0.02547
402.40000	-0.01166
402.50000	0.00203
402.60000	0.01548
402.70000	0.02859
402.80000	0.04125
402.90000	0.05334
403.00000	0.06478
403.10000	0.07546
403.20000	0.08530
403.30000	0.09421
403.40000	0.10214
403.50000	0.10901
403.60000	0.11478
403.70000	0.11940
403.80000	0.12285
403.90000	0.12510
404.00000	0.12614
404.10000	0.12597
404.20000	0.12460
404.30000	0.12206
404.40000	0.11839
404.50000	0.11362
404.60000	0.10780
404.70000	0.10100
404.80000	0.09330
404.90000	0.08476
405.00000	0.07548
405.10000	0.06555
405.20000	0.05507
405.30000	0.04414
405.40000	0.03287
405.50000	0.02137
405.60000	0.00975
405.70000	-0.00188
405.80000	-0.01340
405.90000	-0.02470
406.00000	-0.03567
406.10000	-0.04621
406.20000	-0.05622
406.30000	-0.06559
406.40000	-0.07424
406.50000	-0.08208
406.60000	-0.08903
406.70000	-0.09503
406.80000	-0.10002
406.90000	-0.10394
407.00000	-0.10676
407.10000	-0.10844
407.20000	-0.10896
407.30000	-0.10832
407.40000	-0.10651
407.50000	-0.10354
407.60000	-0.09944
407.70000	-0.09424
407.80000	-0.08798
407.90000	-0.08070
408.00000	-0.07248
408.10000	-0.06338
408.20000	-0.05347
408.30000	-0.04284
408.40000	-0.03157
408.50000	-0.01978
408.60000	-0.00754
408.70000	0.00502
408.80000	0.01782
408.90000	0.03072
409.00000	0.04364
409.10000	0.05645
409.20000	0.06905
409.30000	0.08133
409.40000	0.09319
409.50000	0.10454
409.60000	0.11527
409.70000	0.12529
409.80000	0.13453
409.90000	0.14291
410.00000	0.15036
410.10000	0.15682
410.20000	0.16224
410.30000	0.16659
410.40000	0.16982
410.50000	0.17193
410.60000	0.17289
410.70000	0.17271
410.80000	0.17140
410.90000	0.16898
411.00000	0.16547
411.10000	0.16092
411.20000	0.15538
411.30000	0.14890
411.40000	0.14154
411.50000	0.13338
411.60000	0.12451
411.70000	0.11500
411.80000	0.10495
411.90000	0.09446
412.00000	0.08362
412.10000	0.07253
412.20000	0.06131
412.30000	0.05006
412.40000	0.03889
412.50000	0.02789
412.60000	0.01717
412.70000	0.00684
412.80000	-0.00302
412.90000	-0.01231
413.00000	-0.02094
413.10000	-0.02883
413.20000	-0.03592
413.30000	-0.04213
413.40000	-0.04741
413.50000	-0.05170
413.60000	-0.05498
413.70000	-0.05720
413.80000	-0.05835
413.90000	-0.05842
414.00000	-0.05740
414.10000	-0.05531
414.20000	-0.05215
414.30000	-0.04797
414.40000	-0.04279
414.50000	-0.03667
414.60000	-0.02965
414.70000	-0.02181
414.80000	-0.01320
414.90000	-0.00392
415.00000	0.00596
415.10000	0.01635
415.20000	0.02716
415.30000	0.03829
415.40000	0.04964
415.50000	0.06111
415.60000	0.07259
415.70000	0.08399
415.80000	0.09520
415.90000	0.10612
416.00000	0.11666
416.10000	0.12673
416.20000	0.13622
416.30000	0.14506
416.40000	0.15317
416.50000	0.16049
416.60000	0.16693
416.70000	0.17246
416.80000	0.17701
416.90000	0.18056
417.00000	0.18307
417.10000	0.18451
417.20000	0.18489
417.30000	0.18418
417.40000	0.18242
417.50000	0.17960
417.60000	0.17576
417.70000	0.17093
417.80000	0.16515
417.90000	0.15849
418.00000	0.15099
418.10000	0.14273
418.20000	0.13378
418.30000	0.12422
418.40000	0.11414
418.50000	0.10362
418.60000	0.09276
418.70000	0.08166
418.80000	0.07041
418.90000	0.05911
419.00000	0.04786
419.10000	0.03677
419.20000	0.02592
419.30000	0.01541
419.40000	0.00533
419.50000	-0.00423
419.60000	-0.01319
419.70000	-0.02147
419.80000	-0.02900
419.90000	-0.03572
420.00000	-0.04158
420.10000	-0.04653
420.20000	-0.05052
420.30000	-0.05353
420.40000	-0.05555
420.50000	-0.05654
420.60000	-0.05652
420.70000	-0.05548
420.80000	-0.05346
420.90000	-0.05046
421.00000	-0.04652
421.10000	-0.04169
421.20000	-0.03601
421.30000	-0.02954
421.40000	-0.02235
421.50000	-0.01451
421.60000	-0.00609
421.70000	0.00282
421.80000	0.01213
421.90000	0.02177
422.00000	0.03162
422.10000	0.04161
422.20000	0.05163
422.30000	0.06159
422.40000	0.07139
422.50000	0.08093
422.60000	0.09014
422.70000	0.09891
422.80000	0.10717
422.90000	0.11484
423.00000	0.12183
423.10000	0.12809
423.20000	0.13355
423.30000	0.13816
423.40000	0.14188
423.50000	0.14465
423.60000	0.14646
423.70000	0.14729
423.80000	0.14711
423.90000	0.14594
424.00000	0.14376
424.10000	0.14061
424.20000	0.13649
424.30000	0.13145
424.40000	0.12553
424.50000	0.11876
424.60000	0.11122
424.70000	0.10295
424.80000	0.09403
424.90000	0.08453
425.00000	0.07454
425.10000	0.06413
425.20000	0.05339
425.30000	0.04242
425.40000	0.03129
425.50000	0.02012
425.60000	0.00899
425.70000	-0.00201
425.80000	-0.01279
425.90000	-0.02326
426.00000	-0.03332
426.10000	-0.04291
426.20000	-0.05193
426.30000	-0.06033
426.40000	-0.06803
426.50000	-0.07497
426.60000	-0.08110
426.70000	-0.08638
426.80000	-0.09076
426.90000	-0.09422
427.00000	-0.09673
427.10000	-0.09829
427.20000	-0.09888
427.30000	-0.09852
427.40000	-0.09721
427.50000	-0.09498
427.60000	-0.09186
427.70000	-0.08788
427.80000	-0.08310
427.90000	-0.07756
428.00000	-0.07132
428.10000	-0.06445
428.20000	-0.05702
428.30000	-0.04910
428.40000	-0.04078
428.50000	-0.03214
428.60000	-0.02327
428.70000	-0.01426
428.80000	-0.00519
428.90000	0.00385
429.00000	0.01277
429.10000	0.02147
429.20000	0.02987
429.30000	0.03790
429.40000	0.04546
429.50000	0.05249
429.60000	0.05892
429.70000	0.06467
429.80000	0.06970
429.90000	0.07394
430.00000	0.07736
430.10000	0.07992
430.20000	0.08159
430.30000	0.08235
430.40000	0.08219
430.50000	0.08109
430.60000	0.07907
430.70000	0.07614
430.80000	0.07232
430.90000	0.06763
431.00000	0.06212
431.10000	0.05583
431.20000	0.04880
431.30000	0.04110
431.40000	0.03279
431.50000	0.02393
431.60000	0.01461
431.70000	0.00489
431.80000	-0.00513
431.90000	-0.01538
432.00000	-0.02577
432.10000	-0.03622
432.20000	-0.04663
432.30000	-0.05692
432.40000	-0.06700
432.50000	-0.07680
432.60000	-0.08622
432.70000	-0.09519
432.80000	-0.10365
432.90000	-0.11151
433.00000	-0.11872
433.10000	-0.12522
433.20000	-0.13096
433.30000	-0.13589
433.40000	-0.13998
433.50000	-0.14320
433.60000	-0.14552
433.70000	-0.14694
433.80000	-0.14745
433.90000	-0.14705
434.00000	-0.14575
434.10000	-0.14358
434.20000	-0.14055
434.30000	-0.13671
434.40000	-0.13209
434.50000	-0.12674
434.60000	-0.12073
434.70000	-0.11410
434.80000	-0.10692
434.90000	-0.09927
435.00000	-0.09122
435.10000	-0.08285
435.20000	-0.07424
435.30000	-0.06547
435.40000	-0.05662
435.50000	-0.04778
435.60000	-0.03904
435.70000	-0.03047
435.80000	-0.02216
435.90000	-0.01418
436.00000	-0.00661
436.10000	0.00048
436.20000	0.00701
436.30000	0.01294
436.40000	0.01821
436.50000	0.02275
436.60000	0.02655
436.70000	0.02954
436.80000	0.03172
436.90000	0.03305
437.00000	0.03353
437.10000	0.03314
437.20000	0.03190
437.30000	0.02981
437.40000	0.02688
437.50000	0.02315
437.60000	0.01865
437.70000	0.01342
437.80000	0.00749
437.90000	0.00094
438.00000	-0.00619
438.10000	-0.01383
438.20000	-0.02192
438.30000	-0.03037
438.40000	-0.03913
438.50000	-0.04810
438.60000	-0.05720
438.70000	-0.06637
438.80000	-0.07551
438.90000	-0.08454
439.00000	-0.09339
439.10000	-0.10198
439.20000	-0.11022
439.30000	-0.11804
439.40000	-0.12539
439.50000	-0.13218
439.60000	-0.13837
439.70000	-0.14390
439.80000	-0.14871
439.90000	-0.15277
440.00000	-0.15604
440.10000	-0.15850
440.20000	-0.16011
440.30000	-0.16088
440.40000	-0.16078
440.50000	-0.15984
440.60000	-0.15804
440.70000	-0.15542
440.80000	-0.15199
440.90000	-0.14778
441.00000	-0.14284
441.10000	-0.13721
441.20000	-0.13094
441.30000	-0.12408
441.40000	-0.11670
441.50000	-0.10886
441.60000	-0.10063
441.70000	-0.09208
441.80000	-0.08329
441.90000	-0.07434
442.00000	-0.06531
442.10000	-0.05626
442.20000	-0.04729
442.30000	-0.03847
442.40000	-0.02988
442.50000	-0.02159
442.60000	-0.01367
442.70000	-0.00619
442.80000	0.00079
442.90000	0.00721
443.00000	0.01301
443.10000	0.01815
443.20000	0.02259
443.30000	0.02629
443.40000	0.02923
443.50000	0.03137
443.60000	0.03272
443.70000	0.03326
443.80000	0.03300
443.90000	0.03193
444.00000	0.03009
444.10000	0.02748
444.20000	0.02415
444.30000	0.02012
444.40000	0.01544
444.50000	0.01015
444.60000	0.00432
444.70000	-0.00200
444.80000	-0.00876
444.90000	-0.01587
445.00000	-0.02327
445.10000	-0.03090
445.20000	-0.03866
445.30000	-0.04649
445.40000	-0.05432
445.50000	-0.06206
445.60000	-0.06964
445.70000	-0.07699
445.80000	-0.08403
445.90000	-0.09070
446.00000	-0.09693
446.10000	-0.10266
446.20000	-0.10783
446.30000	-0.11240
446.40000	-0.11630
446.50000	-0.11951
446.60000	-0.12200
446.70000	-0.12372
446.80000	-0.12467
446.90000	-0.12482
447.00000	-0.12418
447.10000	-0.12274
447.20000	-0.12050
447.30000	-0.11750
447.40000	-0.11374
447.50000	-0.10925
447.60000	-0.10408
447.70000	-0.09825
447.80000	-0.09183
447.90000	-0.08485
448.00000	-0.07737
448.10000	-0.06946
448.20000	-0.06119
448.30000	-0.05261
448.40000	-0.04380
448.50000	-0.03484
448.60000	-0.02578
448.70000	-0.01672
448.80000	-0.00772
448.90000	0.00114
449.00000	0.00980
449.10000	0.01817
449.20000	0.02620
449.30000	0.03383
449.40000	0.04098
449.50000	0.04761
449.60000	0.05366
449.70000	0.05910
449.80000	0.06387
449.90000	0.06795
450.00000	0.07130
450.10000	0.07391
450.20000	0.07577
450.30000	0.07686
450.40000	0.07719
450.50000	0.07676
450.60000	0.07559
450.70000	0.07369
450.80000	0.07109
450.90000	0.06783
451.00000	0.06395
451.10000	0.05948
451.20000	0.05448
451.30000	0.04900
451.40000	0.04310
451.50000	0.03684
451.60000	0.03030
451.70000	0.02352
451.80000	0.01659
451.90000	0.00958
452.00000	0.00255
452.10000	-0.00442
452.20000	-0.01126
452.30000	-0.01790
452.40000	-0.02428
452.50000	-0.03033
452.60000	-0.03598
452.70000	-0.04118
452.80000	-0.04589
452.90000	-0.05003
453.00000	-0.05358
453.10000	-0.05650
453.20000	-0.05874
453.30000	-0.06029
453.40000	-0.06113
453.50000	-0.06123
453.60000	-0.06060
453.70000	-0.05923
453.80000	-0.05712
453.90000	-0.05430
454.00000	-0.05079
454.10000	-0.04659
454.20000	-0.04176
454.30000	-0.03632
454.40000	-0.03031
454.50000	-0.02380
454.60000	-0.01682
454.70000	-0.00944
454.80000	-0.00171
454.90000	0.00630
455.00000	0.01453
455.10000	0.02291
455.20000	0.03136
455.30000	0.03983
455.40000	0.04824
455.50000	0.05652
455.60000	0.06461
455.70000	0.07244
455.80000	0.07994
455.90000	0.08706
456.00000	0.09374
456.10000	0.09993
456.20000	0.10557
456.30000	0.11063
456.40000	0.11506
456.50000	0.11884
456.60000	0.12193
456.70000	0.12433
456.80000	0.12600
456.90000	0.12695
457.00000	0.12718
457.10000	0.12668
457.20000	0.12547
457.30000	0.12357
457.40000	0.12100
457.50000	0.11780
457.60000	0.11399
457.70000	0.10962
457.80000	0.10473
457.90000	0.09938
458.00000	0.09361
458.10000	0.08749
458.20000	0.08108
458.30000	0.07444
458.40000	0.06763
458.50000	0.06072
458.60000	0.05377
458.70000	0.04687
458.80000	0.04006
458.90000	0.03342
459.00000	0.02700
459.10000	0.02088
459.20000	0.01511
459.30000	0.00974
459.40000	0.00482
459.50000	0.00041
459.60000	-0.00346
459.70000	-0.00674
459.80000	-0.00941
459.90000	-0.01145
460.00000	-0.01282
460.10000	-0.01352
460.20000	-0.01354
460.30000	-0.01287
460.40000	-0.01153
460.50000	-0.00951
460.60000	-0.00685
460.70000	-0.00356
460.80000	0.00033
460.90000	0.00478
461.00000	0.00976
461.10000	0.01522
461.20000	0.02112
461.30000	0.02740
461.40000	0.03400
461.50000	0.04087
461.60000	0.04795
461.70000	0.05517
461.80000	0.06247
461.90000	0.06979
462.00000	0.07705
462.10000	0.08420
462.20000	0.09117
462.30000	0.09791
462.40000	0.10434
462.50000	0.11041
462.60000	0.11608
462.70000	0.12129
462.80000	0.12599
462.90000	0.13014
463.00000	0.13371
463.10000	0.13666
463.20000	0.13898
463.30000	0.14063
463.40000	0.14161
463.50000	0.14190
463.60000	0.14152
463.70000	0.14044
463.80000	0.13870
463.90000	0.13631
464.00000	0.13328
464.10000	0.12964
464.20000	0.12543
464.30000	0.12069
464.40000	0.11545
464.50000	0.10976
464.60000	0.10368
464.70000	0.09725
464.80000	0.09054
464.90000	0.08359
465.00000	0.07648
465.10000	0.06927
465.20000	0.06201
465.30000	0.05477
465.40000	0.04761
465.50000	0.04060
465.60000	0.03379
465.70000	0.02724
465.80000	0.02101
465.90000	0.01515
466.00000	0.00970
466.10000	0.00472
466.20000	0.00025
466.30000	-0.00369
466.40000	-0.00706
466.50000	-0.00983
466.60000	-0.01199
466.70000	-0.01352
466.80000	-0.01441
466.90000	-0.01467
467.00000	-0.01428
467.10000	-0.01327
467.20000	-0.01164
467.30000	-0.00942
467.40000	-0.00664
467.50000	-0.00332
467.60000	0.00051
467.70000	0.00479
467.80000	0.00948
467.90000	0.01455
468.00000	0.01993
468.10000	0.02557
468.20000	0.03141
468.30000	0.03740
468.40000	0.04348
468.50000	0.04959
468.60000	0.05565
468.70000	0.06163
468.80000	0.06745
468.90000	0.07306
469.00000	0.07839
469.10000	0.08341
469.20000	0.08806
469.30000	0.09228
469.40000	0.09604
469.50000	0.09930
469.60000	0.10202
469.70000	0.10417
469.80000	0.10573
469.90000	0.10668
470.00000	0.10701
470.10000	0.10670
470.20000	0.10575
470.30000	0.10417
470.40000	0.10196
470.50000	0.09914
470.60000	0.09574
470.70000	0.09176
470.80000	0.08725
470.90000	0.08223
471.00000	0.07675
471.10000	0.07086
471.20000	0.06458
471.30000	0.05799
471.40000	0.05112
471.50000	0.04403
471.60000	0.03679
471.70000	0.02944
471.80000	0.02206
471.90000	0.01468
472.00000	0.00738
472.10000	0.00022
472.20000	-0.00676
472.30000	-0.01349
472.40000	-0.01993
472.50000	-0.02602
472.60000	-0.03171
472.70000	-0.03698
472.80000	-0.04177
472.90000	-0.04605
473.00000	-0.04979
473.10000	-0.05298
473.20000	-0.05558
473.30000	-0.05758
473.40000	-0.05898
473.50000	-0.05977
473.60000	-0.05996
473.70000	-0.05955
473.80000	-0.05855
473.90000	-0.05698
474.00000	-0.05488
474.10000	-0.05225
474.20000	-0.04914
474.30000	-0.04559
474.40000	-0.04163
474.50000	-0.03731
474.60000	-0.03268
474.70000	-0.02778
474.80000	-0.02268
474.90000	-0.01742
475.00000	-0.01206
475.10000	-0.00665
475.20000	-0.00126
475.30000	0.00405
475.40000	0.00925
475.50000	0.01426
475.60000	0.01903
475.70000	0.02353
475.80000	0.02769
475.90000	0.03148
476.00000	0.03484
476.10000	0.03776
476.20000	0.04018
476.30000	0.04208
476.40000	0.04345
476.50000	0.04425
476.60000	0.04448
476.70000	0.04413
476.80000	0.04319
476.90000	0.04167
477.00000	0.03957
477.10000	0.03690
477.20000	0.03369
477.30000	0.02996
477.40000	0.02572
477.50000	0.02102
477.60000	0.01589
477.70000	0.01037
477.80000	0.00450
477.90000	-0.00166
478.00000	-0.00808
478.10000	-0.01470
478.20000	-0.02147
478.30000	-0.02833
478.40000	-0.03523
478.50000	-0.04212
478.60000	-0.04893
478.70000	-0.05561
478.80000	-0.06212
478.90000	-0.06840
479.00000	-0.07439
479.10000	-0.08006
479.20000	-0.08536
479.30000	-0.09024
479.40000	-0.09468
479.50000	-0.09863
479.60000	-0.10208
479.70000	-0.10499
479.80000	-0.10735
479.90000	-0.10915
480.00000	-0.11036
480.10000	-0.11100
480.20000	-0.11106
480.30000	-0.11055
480.40000	-0.10947
480.50000	-0.10785
480.60000	-0.10571
480.70000	-0.10307
480.80000	-0.09996
480.90000	-0.09642
481.00000	-0.09248
481.10000	-0.08819
481.20000	-0.08359
481.30000	-0.07872
481.40000	-0.07364
481.50000	-0.06840
481.60000	-0.06305
481.70000	-0.05763
481.80000	-0.05222
481.90000	-0.04685
482.00000	-0.04158
482.10000	-0.03646
482.20000	-0.03155
482.30000	-0.02688
482.40000	-0.02251
482.50000	-0.01848
482.60000	-0.01482
482.70000	-0.01158
482.80000	-0.00878
482.90000	-0.00645
483.00000	-0.00462
483.10000	-0.00330
483.20000	-0.00251
483.30000	-0.00226
483.40000	-0.00255
483.50000	-0.00337
483.60000	-0.00474
483.70000	-0.00662
483.80000	-0.00902
483.90000	-0.01190
484.00000	-0.01524
484.10000	-0.01902
484.20000	-0.02320
484.30000	-0.02774
484.40000	-0.03261
484.50000	-0.03776
484.60000	-0.04315
484.70000	-0.04873
484.80000	-0.05445
484.90000	-0.06025
485.00000	-0.06610
485.10000	-0.07193
485.20000	-0.07770
485.30000	-0.08335
485.40000	-0.08883
485.50000	-0.09410
485.60000	-0.09911
485.70000	-0.10382
485.80000	-0.10818
485.90000	-0.11215
486.00000	-0.11570
486.10000	-0.11880
486.20000	-0.12143
486.30000	-0.12355
486.40000	-0.12515
486.50000	-0.12622
486.60000	-0.12675
486.70000	-0.12673
486.80000	-0.12616
486.90000	-0.12505
487.00000	-0.12341
487.10000	-0.12125
487.20000	-0.11859
487.30000	-0.11546
487.40000	-0.11189
487.50000	-0.10790
487.60000	-0.10353
487.70000	-0.09881
487.80000	-0.09380
487.90000	-0.08853
488.00000	-0.08305
488.10000	-0.07740
488.20000	-0.07165
488.30000	-0.06582
488.40000	-0.05998
488.50000	-0.05418
488.60000	-0.04846
488.70000	-0.04287
488.80000	-0.03747
488.90000	-0.03229
489.00000	-0.02738
489.10000	-0.02277
489.20000	-0.01852
489.30000	-0.01464
489.40000	-0.01117
489.50000	-0.00815
489.60000	-0.00558
489.70000	-0.00349
489.80000	-0.00189
489.90000	-0.00080
490.00000	-0.00021
490.10000	-0.00013
490.20000	-0.00055
490.30000	-0.00147
490.40000	-0.00286
490.50000	-0.00472
490.60000	-0.00701
490.70000	-0.00972
490.80000	-0.01280
490.90000	-0.01624
491.00000	-0.01999
491.10000	-0.02401
491.20000	-0.02827
491.30000	-0.03271
491.40000	-0.03729
491.50000	-0.04196
491.60000	-0.04668
491.70000	-0.05140
491.80000	-0.05607
491.90000	-0.06064
492.00000	-0.06506
492.10000	-0.06930
492.20000	-0.07330
492.30000	-0.07702
492.40000	-0.08043
492.50000	-0.08349
492.60000	-0.08617
492.70000	-0.08843
492.80000	-0.09025
492.90000	-0.09160
493.00000	-0.09248
493.10000	-0.09287
493.20000	-0.09275
493.30000	-0.09212
493.40000	-0.09099
493.50000	-0.08935
493.60000	-0.08722
493.70000	-0.08461
493.80000	-0.08153
493.90000	-0.07801
494.00000	-0.07408
494.10000	-0.06976
494.20000	-0.06508
494.30000	-0.06008
494.40000	-0.05480
494.50000	-0.04928
494.60000	-0.04356
494.70000	-0.03768
494.80000	-0.03170
494.90000	-0.02566
495.00000	-0.01960
495.10000	-0.01357
495.20000	-0.00763
495.30000	-0.00181
495.40000	0.00385
495.50000	0.00929
495.60000	0.01448
495.70000	0.01938
495.80000	0.02395
495.90000	0.02816
496.00000	0.03199
496.10000	0.03540
496.20000	0.03837
496.30000	0.04089
496.40000	0.04295
496.50000	0.04452
496.60000	0.04561
496.70000	0.04622
496.80000	0.04635
496.90000	0.04601
497.00000	0.04521
497.10000	0.04396
497.20000	0.04229
497.30000	0.04022
497.40000	0.03778
497.50000	0.03500
497.60000	0.03191
497.70000	0.02855
497.80000	0.02496
497.90000	0.02117
498.00000	0.01724
498.10000	0.01321
498.20000	0.00911
498.30000	0.00500
498.40000	0.00092
498.50000	-0.00308
498.60000	-0.00697
498.70000	-0.01069
498.80000	-0.01422
498.90000	-0.01750
499.00000	-0.02049
499.10000	-0.02318
499.20000	-0.02552
499.30000	-0.02749
499.40000	-0.02906
499.50000	-0.03020
499.60000	-0.03092
499.70000	-0.03118
499.80000	-0.03098
499.90000	-0.03032
500.00000	-0.02919
